時間[s] x軸周り[deg] y軸周り[deg] z軸周り[deg]
0 0 0 0
0.02 0 0 0
0.07 350.7127 331.0107 352.4041
0.1076634 350.6982 331.0119 352.3911
0.1216465 350.7029 331.0062 352.3939
0.133631 350.7203 330.9921 352.3941
0.1453683 350.7184 330.9903 352.3991
0.1571385 350.7141 331.0032 352.4027
0.1681866 350.7083 330.9975 352.3949
0.1796566 350.7073 330.9977 352.4008
0.1921187 350.6991 331.0093 352.3989
0.202759 350.71 330.9947 352.399
0.2135821 350.7144 330.9962 352.4026
0.2249283 350.7057 330.996 352.3955
0.2361681 350.7128 330.9994 352.3935
0.2471607 350.7037 331.0022 352.3969
0.2580498 350.7134 330.9974 352.4094
0.2688662 350.7125 330.9932 352.3984
0.2795671 350.7161 331.0013 352.3987
0.2904583 350.7201 330.9983 352.397
0.3011835 350.715 330.9993 352.398
0.3118296 350.7239 330.9915 352.3989
0.3228481 350.7164 331 352.3983
0.3337439 350.7149 331.0033 352.4019
0.3448389 350.7128 330.9947 352.3908
0.3569084 350.7223 330.9907 352.4023
0.3676167 350.7184 330.9963 352.398
0.3788122 350.7169 330.9972 352.3958
0.3895756 350.7162 331.0108 352.4017
0.4005556 350.7291 331.0027 352.3957
0.4151697 350.724 330.9987 352.3863
0.4258978 350.7286 331.0016 352.3966
0.4363567 350.7174 331.0034 352.4008
0.4470863 350.724 331.0059 352.394
0.4579468 350.7136 330.9972 352.3942
0.4684411 350.7141 331.0005 352.3988
0.4790924 350.7317 330.9968 352.3908
0.489737 350.7299 330.9919 352.4019
0.5004631 350.7197 330.9942 352.3992
0.5123197 350.7238 330.9982 352.4048
0.5234155 350.7217 331.0082 352.3908
0.5344882 350.7224 330.9986 352.4027
0.5452359 350.7261 331.0049 352.4026
0.5574014 350.7241 331.0074 352.4074
0.5691461 350.709 330.9937 352.4104
0.5811549 350.7075 330.9865 352.4176
0.5930906 350.7211 330.9886 352.4122
0.6056756 350.7255 330.9887 352.4121
0.617421 350.7234 331.0055 352.4109
0.6293832 350.7145 330.9803 352.416
0.6414443 350.7294 330.9895 352.4124
0.653384 350.7067 331.0015 352.3982
0.6654325 350.7173 330.9942 352.4139
0.6770513 350.7204 330.9809 352.4152
0.6882617 350.7125 330.9993 352.4069
0.6993038 350.7195 330.9993 352.4167
0.7102872 350.7292 330.9857 352.3976
0.7215648 350.7123 330.9925 352.4037
0.7327298 350.7307 331.0013 352.3953
0.7437979 350.7176 330.998 352.4126
0.7548243 350.732 331.0035 352.4145
0.7652709 350.7109 331.0044 352.4052
0.7760155 350.7234 330.9893 352.4078
0.7882896 350.7155 331.0006 352.4021
0.7991703 350.7272 330.9912 352.4215
0.8104313 350.7212 330.9913 352.4211
0.8224876 350.7196 330.989 352.4151
0.8336445 350.7236 330.989 352.4137
0.8444869 350.7208 331.0049 352.399
0.8560929 350.7214 330.9946 352.3999
0.8672132 350.7159 330.9833 352.4059
0.8784266 350.7159 330.9893 352.4042
0.8901971 350.7145 330.9932 352.4128
0.9009042 350.7223 330.9846 352.4219
0.9119014 350.7345 330.9796 352.4091
0.9243074 350.7231 330.9854 352.408
0.9348092 350.7336 330.9729 352.3959
0.9452494 350.7231 330.9819 352.4102
0.9560018 350.7194 330.9854 352.4093
0.9665069 350.7292 330.9901 352.4098
0.9770611 350.7309 330.9706 352.4169
0.9879129 350.7063 330.985 352.4127
0.9987947 350.7115 330.9835 352.4002
1.009613 350.7239 330.9951 352.4017
1.020754 350.7209 330.9795 352.4008
1.031758 350.709 330.9907 352.4125
1.043493 350.7184 330.9827 352.412
1.054933 350.7089 330.9822 352.4164
1.065421 350.7182 330.987 352.4124
1.076472 350.7221 330.9832 352.4099
1.087592 350.7091 330.9819 352.42
1.098466 350.7141 330.982 352.4048
1.109604 350.7144 330.9943 352.4077
1.121514 350.7195 330.9877 352.4138
1.132819 350.718 330.992 352.4124
1.143571 350.7106 330.9823 352.4037
1.154616 350.7162 330.9795 352.4117
1.165146 350.7123 330.973 352.4077
1.176089 350.7166 330.9871 352.4186
1.187313 350.7102 330.9779 352.4222
1.199131 350.7043 330.9851 352.4142
1.210288 350.6988 330.9797 352.4146
1.221292 350.6994 330.9839 352.4042
1.232061 350.7161 331.0028 352.412
1.242895 350.7105 330.9759 352.4226
1.254077 350.717 330.9948 352.408
1.264899 350.7116 330.978 352.4148
1.276961 350.7032 330.9833 352.4082
1.288085 350.7134 330.9722 352.4121
1.301063 350.715 330.984 352.4093
1.312553 350.7108 330.9767 352.4165
1.32401 350.6993 330.9843 352.4177
1.335312 350.7104 330.9761 352.416
1.358258 350.7046 330.9742 352.4265
1.368922 350.7124 330.9775 352.4211
1.379685 350.7236 330.9742 352.42
1.390438 350.7141 330.9778 352.4188
1.401142 350.7142 330.9743 352.4316
1.411638 350.7155 330.9824 352.4198
1.422891 350.718 330.9865 352.4086
1.433722 350.7045 330.9813 352.4099
1.444706 350.7078 330.98 352.4129
1.455473 350.7084 330.9845 352.4155
1.466268 350.7202 330.9796 352.4265
1.476787 350.7188 330.9909 352.4158
1.487435 350.7177 330.9747 352.4198
1.498263 350.7254 330.9768 352.424
1.510303 350.7251 330.972 352.4235
1.521453 350.7181 330.9837 352.4111
1.532256 350.7268 330.978 352.4172
1.543165 350.7188 330.9845 352.4165
1.554574 350.7135 330.9773 352.4193
1.566436 350.7081 330.9722 352.4193
1.577042 350.7219 330.9707 352.4337
1.588202 350.714 330.97 352.419
1.599085 350.7213 330.9911 352.4254
1.612436 350.6974 330.9878 352.4043
1.623836 350.7148 330.9803 352.422
1.634693 350.713 330.9816 352.4165
1.645277 350.7159 330.9743 352.413
1.656247 350.713 330.9682 352.4202
1.666737 350.7141 330.9708 352.41
1.677604 350.7274 330.9686 352.4099
1.688643 350.7169 330.9727 352.4067
1.699497 350.7236 330.9781 352.4171
1.71113 350.722 330.9697 352.4247
1.721947 350.7065 330.9669 352.4047
1.732662 350.7163 330.9828 352.4117
1.743621 350.7104 330.9923 352.3988
1.75482 350.7155 330.9868 352.4147
1.765927 350.7202 330.9721 352.4045
1.777235 350.7075 330.9783 352.4244
1.788073 350.7107 330.9718 352.4192
1.799515 350.7149 330.9787 352.4026
1.814169 350.7152 330.9686 352.4128
1.825178 350.7136 330.9806 352.4114
1.83567 350.7136 330.9739 352.415
1.846269 350.7217 330.9821 352.4086
1.856796 350.71 330.9725 352.403
1.867415 350.6982 330.9832 352.4102
1.878001 350.7156 330.9753 352.4081
1.888733 350.7243 330.9792 352.4153
1.899193 350.716 330.973 352.4047
1.9101 350.7154 330.9845 352.4126
1.921262 350.7115 330.9688 352.414
1.933558 350.7285 330.9739 352.4149
1.944226 350.7225 330.9728 352.4178
1.955235 350.7308 330.9798 352.405
1.966026 350.7172 330.9792 352.4216
1.977028 350.7187 330.9742 352.4172
1.98818 350.7215 330.9701 352.4024
1.998995 350.7263 330.9731 352.3979
2.009886 350.7128 330.9785 352.4102
2.021105 350.7047 330.968 352.3986
2.032883 350.7209 330.9757 352.4173
2.043725 350.718 330.9797 352.4105
2.054873 350.703 330.9853 352.4068
2.06572 350.7122 330.9894 352.4039
2.076637 350.7162 330.9839 352.408
2.088068 350.7127 330.9818 352.4202
2.098607 350.7151 330.9792 352.3999
2.110556 350.7156 330.9853 352.4039
2.122188 350.7231 330.982 352.4058
2.133076 350.7112 330.9784 352.4126
2.144176 350.707 330.9722 352.4139
2.155141 350.7253 330.9747 352.4048
2.166208 350.7202 330.989 352.4085
2.176853 350.7209 330.9836 352.408
2.187996 350.7131 330.9798 352.4007
2.198941 350.7238 330.9922 352.4167
2.209862 350.7155 330.9926 352.404
2.221991 350.7194 330.9945 352.4063
2.232775 350.7245 330.9924 352.4114
2.243968 350.712 330.9874 352.3976
2.254955 350.7262 330.9815 352.4085
2.265638 350.7168 330.98 352.4078
2.276592 350.7154 330.977 352.4029
2.287809 350.7163 330.9916 352.3985
2.298668 350.729 330.9914 352.408
2.310523 350.7231 330.9833 352.3917
2.32169 350.7299 330.9856 352.3969
2.332482 350.7179 330.9784 352.4063
2.343464 350.7253 330.9863 352.4123
2.354549 350.7211 330.9824 352.3958
2.36538 350.7318 330.9905 352.3947
2.376323 350.7225 330.9806 352.3889
2.388617 350.7257 330.9968 352.3783
2.39957 350.7164 331.0067 352.3882
2.410242 350.7184 330.9948 352.3925
2.421403 350.7199 330.9945 352.3912
2.432236 350.7126 330.9968 352.3927
2.443195 350.7028 330.9972 352.3914
2.454248 350.723 330.9905 352.3979
2.468951 350.7062 330.9997 352.4004
2.479423 350.7235 330.9935 352.3879
2.490611 350.7146 331.0007 352.3815
2.50114 350.7043 330.994 352.3853
2.511773 350.7135 330.9961 352.3863
2.522633 350.7111 330.9904 352.3841
2.533317 350.7217 330.9994 352.3873
2.544011 350.7099 330.9943 352.4058
2.555332 350.7125 330.9942 352.3885
2.566952 350.7147 330.9991 352.3954
2.578865 350.7213 330.9896 352.3914
2.590796 350.7181 330.9937 352.3766
2.601799 350.7082 331.0012 352.3986
2.612756 350.7078 330.9955 352.3908
2.624149 350.7108 331.0041 352.3962
2.635046 350.7161 330.9972 352.3937
2.646641 350.7228 331.0055 352.374
2.657651 350.7158 331.0134 352.3796
2.668827 350.716 331.0177 352.3776
2.6797 350.7253 331.0084 352.3853
2.690516 350.7189 331.0146 352.3929
2.701632 350.7186 331.0012 352.3873
2.712732 350.7108 331.0126 352.3835
2.727495 350.7113 331.0063 352.3865
2.738303 350.7224 331.0239 352.3799
2.749166 350.7104 331.0251 352.39
2.759687 350.7155 331.007 352.3918
2.770276 350.7145 331.0258 352.3833
2.780691 350.7109 331.0044 352.3885
2.79189 350.7097 331.0223 352.3823
2.802501 350.7238 331.0099 352.391
2.813333 350.7108 331.0058 352.3875
2.825099 350.7087 331.0018 352.3927
2.835843 350.7074 331.0134 352.3985
2.847175 350.7107 331.0219 352.3935
2.858351 350.7195 331.0163 352.3978
2.869098 350.7208 331.0033 352.3978
2.880015 350.7198 331.0169 352.3954
2.891104 350.7255 331.0125 352.3845
2.901979 350.7221 331.0211 352.3945
2.913235 350.7156 331.018 352.3915
2.925454 350.7184 331.0108 352.4026
2.936467 350.7124 331.0202 352.388
2.948003 350.7209 331.013 352.3973
2.960505 350.7108 331.0132 352.3964
2.970962 350.7265 331.0125 352.3987
2.981661 350.7137 331.004 352.3965
2.992871 350.7092 331.0185 352.4013
3.004064 350.7254 331.0174 352.3842
3.014879 350.7128 331.0211 352.395
3.025883 350.7065 331.0138 352.3926
3.036483 350.7108 331.0166 352.3815
3.04696 350.7101 331.0133 352.3911
3.057618 350.7091 331.0091 352.3905
3.068495 350.7169 331.0144 352.4037
3.079539 350.7136 331.0214 352.3953
3.090707 350.7151 331.0178 352.3932
3.101624 350.703 331.0084 352.3985
3.112446 350.7213 331.0003 352.3939
3.124505 350.7193 331.0105 352.409
3.138018 350.7138 331.0129 352.3917
3.14914 350.7216 331.0064 352.3954
3.1601 350.7206 331.0036 352.4114
3.174299 350.7255 330.9989 352.4024
3.185002 350.7148 331.0163 352.4058
3.195403 350.724 331.0043 352.4031
3.206264 350.7149 331.0073 352.4002
3.216678 350.7194 331.0095 352.4117
3.229181 350.7217 331.0169 352.4123
3.239855 350.7143 331 352.4102
3.250335 350.715 330.9993 352.4175
3.260854 350.7216 331.0148 352.4181
3.272014 350.7225 331.0003 352.4216
3.282992 350.7228 331.0126 352.4145
3.293766 350.7237 331.0099 352.4167
3.304349 350.7148 331.0126 352.4104
3.315934 350.714 331.0136 352.4061
3.327184 350.7297 331.0109 352.411
3.33827 350.7204 331.0128 352.4166
3.349693 350.7143 331.0136 352.4102
3.360445 350.7127 331.0028 352.4055
3.371874 350.7146 331.0012 352.4112
3.382771 350.711 331.0055 352.4163
3.394203 350.7235 331.0039 352.4263
3.405118 350.7171 331.0161 352.4118
3.415776 350.7202 331.0099 352.4168
3.426611 350.719 331.0045 352.4238
3.437613 350.7102 330.9904 352.4229
3.448407 350.7059 331.0005 352.4204
3.459349 350.7178 331.0072 352.4098
3.469816 350.7248 331.0023 352.4137
3.48063 350.7134 330.992 352.4221
3.49137 350.7236 330.9985 352.4093
3.501869 350.7259 331.0075 352.4178
3.51336 350.7132 331.0108 352.4178
3.525071 350.729 330.9955 352.4263
3.535902 350.7216 331.0081 352.4063
3.54699 350.7134 330.9998 352.4091
3.559982 350.7241 330.9897 352.43
3.570735 350.7049 331.0038 352.4138
3.582758 350.7165 331.0097 352.424
3.594865 350.7105 330.9975 352.4199
3.606824 350.7297 330.993 352.4251
3.618581 350.7153 330.9993 352.409
3.630631 350.721 330.9987 352.4184
3.642777 350.7067 330.9914 352.4244
3.654684 350.7061 330.9846 352.4169
3.666595 350.7056 330.9862 352.4113
3.67748 350.7051 330.9969 352.4008
3.688844 350.713 330.9931 352.4002
3.699466 350.7027 330.9906 352.4067
3.71041 350.7142 330.9977 352.4095
3.721466 350.7157 330.9916 352.4133
3.733427 350.6951 331.0135 352.4088
3.744389 350.7083 330.9982 352.4196
3.755554 350.7104 330.9906 352.4204
3.76626 350.7099 330.9964 352.4077
3.777278 350.7197 330.9915 352.4136
3.788446 350.6936 330.9874 352.4153
3.799817 350.7047 330.9911 352.4281
3.81113 350.7076 330.9897 352.4273
3.822791 350.7085 331.0063 352.4103
3.834058 350.7146 330.9927 352.4264
3.844617 350.714 330.9909 352.4197
3.855791 350.7101 330.9994 352.4144
3.866584 350.7095 330.9939 352.4253
3.877606 350.7017 330.9977 352.4243
3.888591 350.7123 330.985 352.4196
3.899514 350.7071 330.9947 352.4207
3.910392 350.7067 330.9844 352.4187
3.921498 350.711 330.9897 352.4112
3.933884 350.7141 330.9924 352.4203
3.944905 350.7065 330.9989 352.4259
3.956476 350.7212 331.0064 352.42
3.967148 350.7074 330.984 352.4171
3.977812 350.7013 330.9917 352.4254
3.98907 350.7101 330.9965 352.4206
3.999959 350.7098 330.9901 352.414
4.010767 350.7096 330.975 352.4222
4.021801 350.6964 330.9801 352.4334
4.032723 350.7155 330.9868 352.4285
4.043614 350.7117 331.0001 352.418
4.054655 350.7034 330.9798 352.4261
4.066638 350.7097 330.9838 352.412
4.077548 350.7072 331.0056 352.4214
4.088644 350.7143 330.9908 352.4258
4.099584 350.7001 331.0019 352.4116
4.11062 350.7112 330.9827 352.437
4.121749 350.7041 330.9851 352.417
4.132866 350.7015 330.9872 352.4311
4.144 350.7136 330.9909 352.4305
4.155061 350.7054 331.0007 352.4108
4.166013 350.6999 330.9859 352.4271
4.177817 350.716 330.9849 352.4135
4.188991 350.7109 330.9967 352.423
4.200241 350.7168 330.9837 352.4333
4.210996 350.702 330.9913 352.4283
4.221794 350.7112 330.9941 352.4309
4.23278 350.7051 330.9859 352.4232
4.243591 350.714 330.9724 352.4253
4.255818 350.7052 330.9842 352.4233
4.266779 350.705 330.9894 352.4091
4.2775 350.6952 330.9963 352.4225
4.288621 350.7143 330.986 352.4397
4.299503 350.7085 330.9863 352.4278
4.310427 350.7096 330.9981 352.4361
4.321396 350.7058 331.0031 352.4272
4.333405 350.7192 330.9839 352.4308
4.344377 350.7244 330.9886 352.4346
4.355776 350.7018 331.0032 352.4265
4.36696 350.7021 331.0012 352.427
4.377675 350.7157 330.9871 352.4327
4.389315 350.7164 330.9909 352.4425
4.400349 350.7074 331.0016 352.42
4.41084 350.7044 330.9997 352.4235
4.422562 350.7014 330.9997 352.4394
4.43322 350.708 330.9867 352.4327
4.444079 350.6915 331 352.4374
4.455651 350.7059 331.0055 352.4186
4.467229 350.7022 330.9971 352.4332
4.478338 350.7072 330.9956 352.4366
4.488797 350.7142 330.9867 352.4362
4.499993 350.7219 330.9987 352.4398
4.511209 350.717 330.9982 352.4374
4.522417 350.7186 330.9929 352.4432
4.533067 350.7095 331.002 352.4408
4.543817 350.6989 330.995 352.4243
4.55484 350.7139 331.0046 352.4507
4.568145 350.7138 331.0067 352.4416
4.583441 350.7108 331.0072 352.4382
4.59399 350.7237 330.9936 352.4463
4.604718 350.6912 330.9942 352.4441
4.615623 350.7098 331.0027 352.4546
4.626414 350.7167 330.9988 352.4395
4.636961 350.7113 331.0031 352.4408
4.647686 350.7116 331.0046 352.4279
4.658562 350.7154 331.0088 352.4446
4.669443 350.7136 331.0127 352.4436
4.680464 350.7182 330.9987 352.4477
4.691459 350.7156 331.0015 352.4394
4.703177 350.7165 331.0067 352.434
4.713624 350.7118 331.0028 352.4381
4.725568 350.7213 330.9974 352.4315
4.736521 350.7054 330.998 352.4403
4.747283 350.7187 330.9986 352.4283
4.758266 350.7053 331.002 352.4306
4.769217 350.7134 331.0031 352.4342
4.780156 350.7182 331.0018 352.4286
4.791357 350.7191 330.9959 352.4362
4.803102 350.7179 330.9985 352.427
4.814443 350.7096 330.9879 352.4429
4.825565 350.7169 330.9951 352.4313
4.836865 350.7129 331.0048 352.4316
4.847744 350.7157 330.9967 352.4253
4.858677 350.7196 330.9937 352.4311
4.869197 350.7163 331.0082 352.4309
4.881141 350.7072 330.9999 352.4304
4.892317 350.721 330.9894 352.421
4.902888 350.7274 330.9965 352.4319
4.913798 350.7176 330.9998 352.4128
4.924926 350.7181 331.0045 352.4276
4.935744 350.7143 330.9984 352.4253
4.94718 350.7204 330.9969 352.4286
4.959324 350.714 330.9907 352.4218
4.970554 350.7065 330.9967 352.4394
4.982541 350.7145 330.9837 352.4366
4.994693 350.7159 330.9976 352.4338
5.005447 350.7167 331.004 352.4284
5.016492 350.7074 330.9979 352.4252
5.027846 350.708 330.9926 352.4377
5.038615 350.7101 331.0008 352.4303
5.04939 350.7177 331.0039 352.4259
5.060001 350.7062 331.0049 352.4245
5.070673 350.6984 331.0057 352.4227
5.08138 350.7071 331.0091 352.4222
5.09215 350.7141 330.992 352.4204
5.102472 350.717 330.999 352.4269
5.11342 350.7157 330.9923 352.417
5.125622 350.7087 330.9978 352.4287
5.136397 350.7106 331.005 352.4181
5.147354 350.7014 330.995 352.4234
5.158307 350.7146 330.997 352.4245
5.169495 350.7123 331.005 352.4389
5.180577 350.7177 331.0089 352.4286
5.191414 350.7134 331.0068 352.4315
5.207314 350.7043 330.9997 352.4232
5.218406 350.7095 331.0002 352.4311
5.229232 350.6982 330.9987 352.4317
5.239892 350.7056 330.9912 352.4355
5.250284 350.6998 331.0069 352.4326
5.260879 350.7028 331.0048 352.4376
5.271389 350.7081 330.9995 352.4408
5.282144 350.6992 330.9962 352.427
5.293068 350.7072 331.001 352.4277
5.303579 350.7115 330.9869 352.4357
5.313952 350.6998 330.994 352.425
5.325463 350.7038 331.0067 352.4253
5.336585 350.7061 330.9874 352.4284
5.347461 350.6936 330.9938 352.4394
5.358614 350.6948 330.9936 352.4283
5.369572 350.7032 331.0085 352.435
5.380291 350.7097 331.0052 352.4233
5.391373 350.6989 331.0071 352.4321
5.402225 350.7079 331.0049 352.4264
5.414281 350.695 331.009 352.4258
5.425225 350.7011 330.999 352.4229
5.436299 350.706 331.0024 352.4257
5.447147 350.6989 331.0065 352.4185
5.458223 350.7031 330.9946 352.4286
5.469048 350.6905 331.006 352.4241
5.480217 350.6978 331.0122 352.436
5.492498 350.7069 331.0125 352.4282
5.503004 350.7039 331.0018 352.4288
5.514273 350.697 331.0101 352.4419
5.524975 350.709 331.0079 352.4238
5.536057 350.707 331.0165 352.4341
5.547123 350.7073 331.0009 352.4321
5.557828 350.7074 331.005 352.4261
5.570014 350.7075 331.0119 352.4282
5.580894 350.7104 331.0004 352.4231
5.591876 350.7072 330.9882 352.4176
5.602741 350.7046 331.0001 352.4174
5.61402 350.7195 331.0104 352.4315
5.625134 350.7064 331.0083 352.4236
5.636189 350.713 331.0063 352.433
5.647259 350.7076 331.0008 352.4284
5.658154 350.7182 331.0118 352.4236
5.669307 350.7126 331.0064 352.427
5.680077 350.712 330.995 352.4227
5.692078 350.7054 331.005 352.4053
5.703045 350.7177 331.0041 352.4312
5.714053 350.7265 331.0203 352.4161
5.724947 350.7207 331.0089 352.4219
5.736535 350.7152 330.9998 352.407
5.747468 350.7208 331.0012 352.4368
5.758478 350.7069 331.008 352.4164
5.76939 350.7237 330.9967 352.4151
5.780419 350.713 331.0012 352.4102
5.791408 350.7159 331.0097 352.4186
5.802237 350.7088 331.0042 352.4156
5.814609 350.7193 331.0103 352.4205
5.826177 350.7108 331.0045 352.3984
5.837212 350.7278 330.9989 352.4104
5.848256 350.7219 330.9989 352.429
5.858996 350.7127 330.992 352.4212
5.869321 350.7209 331.0087 352.4179
5.880008 350.7215 330.993 352.4136
5.89204 350.7202 331.0005 352.4215
5.903049 350.7119 330.9975 352.4175
5.914002 350.7232 331.0028 352.4092
5.925097 350.7209 330.9973 352.4187
5.935982 350.7215 330.9932 352.4084
5.946997 350.7279 330.9936 352.4135
5.957887 350.7137 331.007 352.4132
5.969881 350.7195 330.9989 352.4108
5.981045 350.7143 330.9931 352.4161
5.992438 350.7143 331.0055 352.4079
6.003397 350.7217 331.0001 352.4037
6.013999 350.7224 330.9933 352.4176
6.025194 350.7239 330.9946 352.4076
6.035839 350.7184 330.9934 352.4153
6.046565 350.7202 331.0044 352.4079
6.05868 350.7188 330.9926 352.4106
6.06959 350.7109 330.9992 352.4055
6.080871 350.7126 330.9988 352.4092
6.092283 350.7065 331.0053 352.4034
6.102864 350.7143 330.9971 352.4063
6.113506 350.7166 330.9947 352.4171
6.124965 350.7129 331.001 352.4063
6.137015 350.7133 330.9914 352.4018
6.148066 350.7106 331.0044 352.4012
6.159377 350.712 331.0054 352.407
6.170408 350.7097 331.0066 352.4133
6.181296 350.7062 331 352.3999
6.191988 350.7033 331.001 352.3979
6.202428 350.6964 330.9912 352.4131
6.214195 350.7151 331 352.4024
6.225182 350.7144 331.0023 352.3958
6.236251 350.712 330.9886 352.4114
6.247091 350.6989 330.9908 352.4091
6.258098 350.7104 330.998 352.4054
6.26915 350.7088 330.9971 352.4023
6.283412 350.7119 331.005 352.4015
6.29445 350.7047 330.9993 352.3963
6.304831 350.7111 331.0084 352.4041
6.315266 350.7054 331.0113 352.3899
6.327533 350.7065 330.9955 352.3944
6.338449 350.7124 331.0088 352.3892
