時間[s] x軸周り[deg] y軸周り[deg] z軸周り[deg]
0 0 0 0
0.02 0 0 0
0.05333333 343.5192 352.472 1.010918
0.08666666 342.2763 355.9435 359.6407
0.12 342.2474 356.0053 359.6482
0.1521358 341.8766 356.3713 359.9243
0.1854691 341.339 356.5934 0.5651853
0.2171105 341.4485 356.9309 0.5447084
0.2474732 342.1365 357.1839 0.5916966
0.2766623 342.8254 357.3601 0.5509054
0.3076852 343.5741 357.5721 0.4988215
0.3365902 344.0716 357.7427 0.6463507
0.3652121 344.2395 357.903 0.7054999
0.3944782 344.4756 358.2169 0.7787716
0.4240556 344.6368 358.4246 0.9543347
0.4531648 344.7236 358.5714 1.240317
0.4816194 344.9925 358.5843 1.55608
0.5104453 345.3688 358.5338 1.790529
0.5385298 345.765 358.3678 2.163096
0.5683103 345.8463 358.1566 2.412987
0.60043 345.8889 357.8055 2.703305
0.629516 345.9651 357.5096 2.904622
0.6574404 345.9839 357.3211 2.875646
0.6846129 345.8918 357.1805 2.729447
0.7137673 345.9553 357.1249 2.654294
0.7429254 345.9459 357.3355 2.500943
0.7704737 345.5645 357.5673 2.14993
0.8003166 345.3495 357.7447 2.021099
0.8304347 344.9691 358.0753 1.928051
0.8608526 344.377 358.3678 1.827495
0.894186 343.9992 358.5758 1.623229
0.9264113 343.3336 359.035 1.198448
0.9562175 343.2428 359.3222 1.000752
0.986788 343.1139 359.7498 0.7075612
1.016369 343.0112 0.07758026 0.4725977
1.045811 343.1194 0.4317394 0.2735792
1.073499 343.5165 0.6501862 0.328135
1.102404 343.6556 0.7043389 0.4088967
1.133558 343.6202 0.6647905 0.3621728
1.163649 343.7603 0.6228009 0.2758551
1.196982 344.1119 0.5173629 0.2594047
1.227526 344.3954 0.416471 0.2998192
1.260859 344.6848 0.459188 0.2695745
1.293138 345.0146 0.6588774 0.1921527
1.321576 345.1611 0.9556564 0.08995997
1.35196 345.4651 1.252361 0.0303232
1.380646 345.6868 1.517512 0.04222221
1.413898 346.3043 1.799374 0.1764363
1.447231 347.3441 2.176154 0.1875702
1.477095 347.9504 2.585747 0.1336503
1.506915 348.7257 2.707971 0.2814817
1.536506 349.4749 2.727151 0.3140892
1.56506 349.6089 2.707217 0.1940687
1.594457 349.4105 2.629034 0.08508085
1.623631 348.8353 2.655013 0.01191187
1.656964 348.117 2.771381 359.8005
1.685055 347.8565 2.916145 359.6312
1.716587 347.6448 3.001218 359.5529
1.74992 347.4505 3.060166 359.4203
1.778077 347.4724 3.095923 359.3522
1.81141 347.6696 3.084882 359.3985
1.842414 347.7006 3.002287 359.4156
1.87158 347.6632 2.900494 359.2681
1.901934 347.7952 2.801672 359.2729
1.933345 347.9641 2.660292 359.3216
1.964822 348.1048 2.42848 359.4505
1.996694 348.3587 2.302847 359.4785
2.027312 348.3951 2.240352 359.3507
2.060013 348.4176 2.183784 359.4577
2.089022 348.3609 2.329429 359.2565
2.11982 348.2771 2.452981 359.1494
2.150528 348.3998 2.568294 359.2432
2.180528 348.2378 2.823458 359.1974
2.212559 347.9126 3.105832 359.0815
2.245893 347.6328 3.436248 359.1841
2.276129 347.1164 4.048963 359.001
2.307666 346.8506 4.681146 358.7776
2.336442 347.1769 5.139793 358.9298
2.368169 347.435 5.587846 359.1844
2.398797 347.3857 5.947803 359.3395
2.428506 347.3837 6.26143 359.6574
2.46184 347.5447 6.479922 0.1232983
2.495173 347.4925 6.614481 0.4746649
2.524699 347.3891 6.742963 0.5283567
2.553145 347.3836 6.973146 0.3888197
2.582984 347.3802 7.153396 0.5549496
2.611514 347.4494 7.282988 0.7314282
2.641045 347.3258 7.613801 0.720498
2.670801 347.1101 7.961018 0.5424945
2.701205 346.8503 8.663356 0.278793
2.734539 346.6938 10.00137 359.9728
2.763125 346.6423 11.46452 359.7687
2.791175 346.6848 13.06089 359.5297
2.824509 346.7162 14.14395 359.3931
2.855924 346.8577 15.64637 359.1687
2.889124 347.0752 16.90189 358.9136
2.922457 347.2238 17.57827 359.1816
2.952866 347.1826 16.35696 359.7846
2.982826 347.0952 15.27927 359.1925
3.014851 347.1797 13.84751 358.5564
3.045514 347.2471 11.67542 358.3257
3.074975 347.1432 8.586225 358.328
3.103652 347.2542 6.116038 358.2767
3.134153 347.8885 2.355511 357.9449
3.163011 348.4868 358.8566 357.799
3.193496 348.7191 356.9766 357.9745
3.225265 349.2581 354.964 358.1708
3.253176 350.2289 353.8021 358.28
3.28651 350.8043 353.5322 358.4924
3.31557 351.9774 354.0259 358.7141
3.344127 352.284 354.6037 358.8801
3.375485 352.4424 355.7525 359.0135
3.408172 352.8072 356.78 359.0738
3.440303 353.0841 358.0905 359.0339
3.46836 353.0051 359.0778 359.038
3.49712 352.7891 359.7987 359.1466
3.526767 352.952 0.1586713 359.4116
3.557172 353.9622 0.5537552 359.5213
3.585473 355.4205 1.135273 359.1232
3.615355 356.1198 1.61226 358.7223
3.645563 356.6232 2.141209 358.4413
3.678896 357.0224 2.498976 358.3978
3.710281 357.3624 2.701404 358.5183
3.742106 357.6289 2.86072 358.5303
3.771396 357.5842 2.893913 358.6521
3.802955 357.5213 2.782994 358.9169
3.833914 357.4718 2.694409 359.0599
3.862145 357.3001 2.584939 359.0957
3.895478 357.1984 2.409447 359.1088
3.927854 357.2479 2.314579 359.0971
3.957642 357.2813 2.186641 359.2171
3.989379 357.4115 2.059027 359.2088
4.018976 357.5561 1.952585 359.2504
4.048999 357.7599 1.946216 359.2933
4.081105 358.1152 2.13412 359.1455
4.114439 358.453 2.472163 359.0621
4.147772 358.4603 2.663125 359.2133
4.176025 358.2475 2.715225 359.2679
4.208118 358.1274 2.826406 359.1967
4.241048 358.0797 2.898693 359.1344
4.271285 358.23 3.017054 359.245
4.302814 358.3619 3.161724 359.2575
4.332705 358.2722 3.306509 359.4107
4.363282 358.281 3.425296 359.4808
4.396194 358.1458 3.558025 359.3024
4.429527 357.9542 3.605566 359.2101
4.458734 358.0867 3.622668 359.0955
4.492067 358.2042 3.652349 358.9534
4.521868 358.3229 3.767197 358.5575
4.555201 358.3678 3.876471 358.2506
4.583833 358.488 3.970224 358.146
4.613688 358.6773 4.051633 358.1123
4.642323 358.8843 4.140065 358.0945
4.673836 359.0152 4.166149 358.1233
4.704763 359.2296 4.105374 358.1408
4.73326 359.3274 4.025874 358.0773
4.766593 359.4249 3.944982 358.0735
4.797782 359.7823 3.850656 358.0713
4.825718 0.04892856 3.733123 358.1174
4.854719 0.3006137 3.649069 358.035
4.886556 0.5687238 3.59905 358.0083
4.916666 0.9603952 3.514108 358.0274
4.948956 1.309399 3.530712 357.9753
4.980605 1.50417 3.552434 358.0227
5.010017 1.82472 3.516587 358.1878
5.043351 2.867275 3.418537 358.4743
5.076684 3.16859 3.423551 358.6289
5.109297 2.482567 3.365328 358.4973
5.137834 2.974021 3.388456 358.5662
5.171167 2.655339 3.594662 358.3958
5.201481 2.310543 3.871845 358.1772
5.231846 2.549271 3.993123 358.2265
5.262897 2.803074 4.111152 358.3515
5.29167 3.032233 4.172625 358.2326
5.320326 3.08283 4.227948 358.1419
5.35366 3.114003 4.184576 358.1005
5.386993 2.97923 4.144743 358.0335
5.419145 3.048289 4.227075 358.0091
5.448153 3.078093 4.445407 357.9541
5.476325 3.086959 4.571224 357.9916
5.506401 3.216792 4.665118 357.9985
5.536159 3.217906 4.76089 357.8906
5.569492 3.241461 4.822194 357.7681
5.602129 3.277293 4.859151 357.714
5.634313 3.417097 4.899341 357.6503
5.666206 3.468643 5.054105 357.481
5.694693 3.559367 5.137052 357.3877
5.724931 3.693774 5.209893 357.4055
5.753263 3.675308 5.262051 357.4593
5.782037 3.608092 5.349321 357.5062
5.809724 3.626785 5.379837 357.5141
5.838965 3.618855 5.420649 357.5352
5.867845 3.562005 5.442038 357.5287
5.899206 3.422877 5.490801 357.51
5.927948 3.354899 5.490006 357.5341
5.958951 3.339991 5.4958 357.5309
5.988274 3.29976 5.516886 357.5227
6.020236 3.243505 5.559509 357.5293
6.051651 3.250584 5.711984 357.5268
6.084984 3.163869 5.828144 357.5536
6.114706 3.178606 5.907135 357.5619
6.14585 3.110072 6.079188 357.4828
6.177227 3.039864 6.273439 357.4178
6.206526 2.93715 6.397028 357.3559
6.237771 2.643044 6.492155 357.3182
6.269851 2.726286 6.621564 357.2154
6.300531 2.600063 6.742921 357.2189
6.331487 2.511887 6.773781 357.191
6.36482 2.535538 6.983483 356.9963
6.396634 2.137191 7.279355 356.8006
6.42659 1.466187 7.64197 356.7276
6.457074 1.484612 7.957477 356.6634
6.488269 1.597774 8.153568 356.4642
6.517725 1.331522 8.290851 356.2337
6.546811 0.919562 8.499629 356.1661
6.577031 1.18391 8.75636 356.1604
6.605321 1.529856 8.871619 356.1463
6.638655 1.812585 9.045671 356.0683
6.668658 1.259424 9.197096 355.8092
6.697606 1.004701 9.362778 355.6087
6.726012 0.8315944 9.480234 355.5265
6.756601 0.7105933 9.682446 355.3419
6.786613 0.6855643 9.987638 355.2863
6.819947 0.5275449 10.23048 355.2385
6.849558 0.4575017 10.46801 355.0631
6.879563 0.6051424 10.75169 354.8983
6.909549 0.7514006 10.97351 354.928
6.941832 0.8653932 11.07271 354.9488
6.971796 0.6684378 11.25667 354.9084
7.003485 0.473362 11.39138 354.8921
7.032891 0.3769621 11.50056 354.8728
7.063218 0.2649119 11.66377 354.8667
7.096551 0.2259924 11.72893 354.8716
7.129808 0.4138732 11.75667 354.9282
7.160255 0.3944542 11.85223 354.9242
7.190247 0.2494735 11.91176 354.8814
7.21969 0.3560859 11.87536 354.9341
7.251415 0.3796425 11.92302 354.9298
7.280797 0.2232019 11.98631 354.9365
7.309707 0.2278503 12.06373 354.9688
7.33937 0.1823473 12.27409 355.0568
7.372703 0.02799524 12.49582 355.1786
7.402445 359.6388 13.10564 355.255
7.433381 359.7749 13.3686 355.3215
7.463435 359.9362 13.62096 355.3867
7.496768 359.6611 13.92589 355.4048
7.530101 359.8811 14.1275 355.4384
7.563435 359.8284 14.23798 355.3891
7.596094 359.549 14.32227 355.2991
7.62681 359.6638 14.38081 355.1992
7.656515 359.7878 14.34949 355.0636
7.689848 359.6178 14.23757 355.0988
7.720016 359.0482 13.31646 354.9177
7.750994 359.5316 12.62438 354.9927
7.781895 359.6087 12.42047 355.3426
7.813455 359.2271 11.95735 355.241
7.846788 359.1413 11.59222 355.1886
7.875927 359.0215 11.43615 354.981
7.909261 359.0422 11.42895 355.1194
7.937692 359.2748 11.62988 355.0369
7.966361 359.287 11.90226 354.9593
7.996047 359.3599 12.14131 354.8817
8.024855 359.5132 12.26958 354.6782
8.052426 359.4207 12.31368 354.7868
8.0804 359.2516 12.51708 354.6402
8.113733 359.2049 12.68782 354.5058
8.142354 359.3352 13.01996 354.5857
8.174374 359.2247 13.26523 354.4715
8.207365 359.2071 13.70793 354.3984
8.238605 359.1005 14.24374 354.3871
8.268682 359.0543 14.64827 354.1273
8.302014 359.252 14.84302 354.1039
8.330517 359.1788 15.31988 353.9787
8.36385 359.3059 15.56798 354.0115
8.392393 359.4395 15.74458 354.0626
8.420883 359.5859 15.92337 353.8157
8.454217 359.8166 16.14078 353.8294
8.48755 359.9545 16.30767 353.6506
8.515574 0.2440711 16.48878 353.595
8.544561 0.576345 16.60133 353.581
8.573239 0.6272254 16.64937 353.5055
8.606572 0.5753884 16.66912 353.434
8.638192 0.528641 16.63896 353.4449
8.6674 0.5398564 16.51981 353.4754
8.697658 0.5737528 16.49045 353.4989
8.72871 0.6004549 16.5476 353.4783
8.762043 0.6544505 16.53159 353.7551
8.791013 0.5829427 16.81421 353.9911
8.819892 0.4267822 17.20966 354.2335
8.853225 0.4558167 17.31775 354.4575
8.882534 0.4424135 17.36004 354.5837
8.915288 0.4228992 17.3451 354.5381
8.943882 0.433313 17.19242 354.6595
8.974089 0.3150303 17.08478 354.7724
9.005416 0.4810154 16.92404 354.8221
9.036836 0.4926845 16.9133 354.818
9.068847 0.3080445 16.8954 354.8913
9.10083 0.4679588 16.75514 354.9373
9.130748 0.4538971 16.6666 354.9293
9.16109 0.304823 16.62948 354.9548
9.190946 0.2434315 16.55229 354.9387
9.222316 0.1299117 16.49327 354.913
9.250998 0.1376712 16.55239 354.8633
9.284331 0.1180568 16.51543 354.8201
9.317664 0.1314926 16.56035 354.7718
9.350998 0.3160047 16.64871 354.7959
9.382787 0.2246189 16.77558 354.6245
9.412051 0.3126059 16.91445 354.6517
9.44151 0.3919431 17.00681 354.6906
9.474844 0.4252128 17.04728 354.7171
9.505355 0.5253037 17.00201 354.787
9.5344 0.4383573 16.97321 354.6833
9.564353 0.5124779 16.92554 354.6913
9.597081 0.6492074 16.90444 354.6231
9.630414 0.7191415 17.0146 354.5347
9.660867 0.8286884 17.05416 354.678
9.689877 0.8940916 17.06106 354.7139
9.722272 0.9578015 17.12756 354.6914
9.752825 1.043006 17.07629 354.7327
9.782112 1.113327 17.18147 354.7292
9.811216 1.048052 17.28752 354.7341
9.842013 1.149101 17.58901 354.644
9.871615 1.298264 17.74765 354.6372
9.901732 1.288925 17.8998 354.7146
9.934035 1.356306 17.91175 354.6936
9.967369 1.426227 17.90512 354.7178
10.0007 1.307936 17.92448 354.7104
10.03099 1.34512 17.85038 354.7611
10.06355 1.290505 17.81481 354.8022
10.09688 1.272406 17.89668 354.7955
10.12848 1.11543 18.049 354.8976
10.15975 0.9941536 18.37019 354.9695
10.19055 0.8406448 18.6076 355.1333
10.22279 0.8081204 18.76663 355.0931
10.25286 0.6456816 18.95088 355.0328
10.28089 0.5422085 19.01222 355.1508
10.31422 0.4644968 19.16135 355.2097
10.34371 0.4152338 19.39386 355.3137
10.37704 0.4358484 19.57682 355.4088
10.40687 0.2964731 19.79407 355.4648
10.4366 0.2614285 19.96501 355.6431
10.46716 0.2001607 20.15187 355.6797
10.50012 0.1340289 20.22582 355.8086
10.5292 0.1295683 20.26229 356.0233
10.55849 0.06322793 20.19814 356.0428
10.58809 0.02722626 20.08544 356.0488
10.61741 0.1125582 19.85361 355.952
10.648 0.1372377 19.80437 355.99
10.67749 0.1390494 19.77669 356.1128
10.70589 0.1742329 19.68394 356.2281
10.7342 0.08618139 19.54387 356.3585
10.7634 0.1948931 19.40147 356.4339
10.79245 0.2398776 19.06981 356.6211
10.82394 0.2255262 18.64709 356.74
10.85728 0.337792 18.19477 356.8213
10.8873 0.5893121 17.3291 356.9262
10.92064 0.5071746 16.69265 356.8143
10.95054 0.6079638 16.15538 356.8775
10.98388 0.5768399 15.77742 356.9349
11.01229 0.5380266 15.48643 356.9982
11.0448 0.5984603 15.34373 356.934
11.07574 0.4843386 15.21541 356.9426
11.10483 0.3770644 15.08592 356.9856
11.13544 0.4746238 15.07197 356.9355
11.16692 0.4935217 15.02032 357.0454
11.20025 0.4197064 14.94865 357.053
11.23264 0.5063807 14.91785 357.0155
11.26598 0.6473336 14.85832 357.0576
11.29925 0.6124868 14.82682 357.0228
11.32922 0.5681523 14.66529 357.0563
11.35876 0.6490384 14.55041 356.9897
11.38939 0.6930302 14.5088 356.942
11.4175 0.6862456 14.50218 356.8711
11.44948 0.6655626 14.49668 356.7816
11.47838 0.5200212 14.57415 356.6891
11.51171 0.4295843 14.69463 356.6613
11.54182 0.5024158 14.82125 356.6482
11.57098 0.5729142 15.01632 356.5399
11.60431 0.6516353 15.07263 356.5887
11.63322 0.7586379 15.03774 356.492
11.66238 0.8267033 15.01215 356.4713
11.69571 0.6102211 15.05775 356.3981
11.72766 0.7477764 15.3168 356.2361
11.75537 0.6789397 15.52161 356.1681
11.78646 0.6285725 15.87337 356.0589
11.8182 1.187879 16.04771 356.2263
11.85153 1.059842 16.37971 356.3091
11.88099 0.9331467 16.66898 355.9641
11.91047 0.8277255 16.74039 355.8779
11.9438 0.7288629 16.71247 355.7935
11.97669 0.8406052 16.59524 355.6519
12.01003 0.8850862 16.49228 355.6449
12.04005 0.9877748 16.45688 355.6203
12.07153 1.042657 16.32915 355.6304
12.10367 1.140671 16.12319 355.6433
12.13257 0.8013769 15.94981 355.3637
12.16397 0.523307 15.81183 355.2272
12.1955 0.3692633 15.48413 355.2558
12.22559 0.3158264 15.28212 355.2447
12.25535 0.5322986 15.08506 355.1831
12.28868 0.8388388 14.92025 355.1454
12.32015 0.9736536 14.6729 355.0832
12.3481 0.7632291 14.54276 355.2114
12.37909 0.5780059 14.644 355.1451
12.40876 0.3417784 14.642 355.3138
12.43724 0.1983681 14.56975 355.5769
12.46698 1.977498 14.43615 355.9037
12.49962 2.283128 14.3299 355.9584
12.53099 1.266687 14.15121 355.8955
12.56433 0.7268827 13.98728 355.6684
12.59322 0.4037923 14.02005 355.2376
12.62543 1.186986 14.248 355.0788
12.65631 0.8379083 14.54499 354.9615
12.68964 0.3430513 14.80352 354.8828
12.71818 0.6093975 15.3491 354.9062
12.74756 0.6513506 15.70582 354.769
12.77822 0.1221442 16.68728 354.7142
12.80935 359.6831 17.44055 354.838
12.84268 359.5285 18.30038 355.0364
12.87199 359.3635 19.34593 355.0136
12.90532 359.0762 20.51919 355.0631
12.93483 358.9731 21.72948 355.1714
12.96493 359.1414 23.13011 355.2804
12.99683 359.3164 24.13906 355.3444
13.02867 359.3874 25.23916 355.4593
13.05893 359.2977 26.33842 355.3804
13.08793 359.2292 27.46845 355.272
13.12126 359.2028 28.01362 355.3165
13.15192 358.7674 28.68564 355.3278
13.18009 358.1961 29.27935 355.1902
13.20883 358.1794 29.80571 355.0192
13.23845 358.035 30.13866 354.9271
13.27124 357.4982 30.59641 354.7971
13.30457 357.1894 31.29846 354.3823
13.33472 356.7767 32.35897 354.3129
13.36468 356.3753 33.08542 354.0228
13.39552 356.0031 33.84445 353.5588
13.42566 355.8519 34.54503 353.4362
13.45899 355.4494 35.25301 353.1813
13.49141 355.4644 36.00984 353.0359
13.52412 355.8238 36.31299 353.0137
13.55406 355.8571 36.62817 352.9119
13.58438 356.1377 37.02119 353.0679
13.61772 355.4283 37.37107 352.703
13.64826 354.6539 37.85057 352.9545
13.67777 354.8392 37.83111 353.7971
13.7073 354.8468 37.70413 353.8929
13.74063 354.4126 37.93183 353.5278
13.77054 354.209 38.48355 353.4896
13.79922 354.5645 38.74179 353.7126
13.8297 354.3766 38.92451 353.8686
13.86303 354.4557 39.08202 353.9904
13.8931 355.315 39.17366 354.343
13.92548 355.5602 39.41203 354.5514
13.9552 355.7708 39.72321 354.7114
13.98507 355.688 39.96553 354.8787
14.0184 355.4848 40.45141 355.0413
14.05105 355.5395 41.11957 355.3439
14.08089 355.6083 41.68616 355.7958
14.11061 355.7595 42.04277 356.0205
14.14293 356.2938 42.37475 356.3838
14.1716 356.6928 42.50453 356.7417
14.20494 356.8937 42.37228 357.0295
14.23827 357.09 42.34574 357.0773
14.2716 357.4638 42.41187 357.0218
14.30225 357.8072 42.3983 356.9185
14.33232 357.9133 42.29089 356.9738
14.36566 358.1827 42.03101 356.9639
14.39899 358.5958 41.08643 356.8078
14.42819 358.9989 39.58199 356.7187
14.45867 359.5224 38.27501 356.8332
14.49122 0.3808367 35.98485 356.94
14.52069 1.400636 33.37119 357.1324
14.55011 2.018723 31.35669 357.1706
14.58233 2.200198 29.098 356.9892
14.61256 2.532477 26.99146 356.7401
14.64206 2.509104 25.13638 356.7247
14.67197 2.543095 24.11492 356.5819
14.70211 2.991523 22.71595 356.4432
14.73138 2.908251 21.51792 356.5691
14.76471 3.03151 20.70498 356.6661
14.79514 3.592168 19.63155 356.8452
14.82545 3.518397 18.76432 357.0347
14.85513 3.37814 18.04691 357.0568
14.8846 3.261864 17.60567 357.1553
14.91675 3.056224 17.42885 357.1474
14.94652 2.653124 17.37217 357.0889
14.97818 2.288117 17.55607 357.066
15.00859 1.785953 17.86477 357.1244
15.03802 1.312717 18.05264 357.1684
15.07136 0.9441814 18.03948 357.2283
15.10063 0.7209216 17.99147 357.2004
15.13396 0.1922633 17.81213 357.114
15.16409 359.8694 17.5348 356.9635
15.19695 359.5738 17.17393 356.8806
15.23019 359.1835 16.82321 356.7668
15.26337 358.8548 16.43935 356.6451
15.29307 358.4684 16.10373 356.5385
15.3264 358.2282 15.93324 356.4438
15.35693 357.9239 15.86072 356.3195
15.38657 357.5853 16.15383 356.1997
15.4199 357.3367 16.61038 356.1616
15.4506 357.103 17.23129 356.1432
15.47989 356.9344 17.89539 356.1185
15.50923 356.8546 18.37589 356.0936
15.53932 356.7442 19.07595 356.0629
15.56907 356.8396 19.69647 355.9738
15.59982 356.9205 20.14449 355.8757
15.63315 357.1369 20.87966 355.6737
15.66212 357.2945 21.51049 355.5022
15.69188 357.4633 22.09955 355.3208
15.72125 357.5343 22.54032 355.2076
15.75015 357.605 23.05019 355.1073
15.78348 357.6237 23.40652 355.0366
15.81346 357.5891 23.89657 354.9159
15.84227 357.5856 24.10537 354.8444
15.87295 357.5363 24.43211 354.7661
15.90299 357.491 24.82743 354.6787
15.93254 357.3413 25.38091 354.67
15.96338 357.2532 26.44108 354.8897
15.99307 357.3411 27.59407 355.1204
16.0218 357.2787 28.37945 355.233
16.05491 357.2675 29.28759 355.254
16.08452 357.295 30.02036 355.1907
16.11785 357.2279 30.93741 355.091
16.15046 357.1665 31.81725 355.0691
16.18039 357.1568 32.57293 355.0126
16.2122 357.1888 33.03257 354.9369
16.24344 357.3745 33.69846 354.778
16.27583 357.3278 34.2083 354.6761
16.30625 357.2705 34.61673 354.6365
16.33958 357.2084 34.82915 354.5751
16.37143 357.1694 34.86948 354.5432
16.40255 357.0198 34.8923 354.4957
16.43186 356.9011 34.80845 354.3929
16.46456 356.8182 34.673 354.2528
16.4935 356.8258 34.39692 354.1219
16.52538 356.9143 34.22852 354.0805
16.5562 356.9169 34.21569 354.0214
16.58954 356.8896 34.18994 353.9799
16.6185 356.8787 34.18198 353.9574
16.65086 356.865 34.2626 353.9426
16.68037 356.781 34.37916 353.9763
16.70959 356.7472 34.51807 354.0589
16.73979 356.6577 34.75269 354.109
16.77261 356.5744 34.95071 354.1905
16.80439 356.3637 35.19336 354.2217
16.83772 356.1807 35.35 354.3147
16.86763 356.091 35.42852 354.3497
16.8985 356.0445 35.37576 354.2685
16.92822 356.0143 35.25895 354.3438
16.96045 356.0842 35.15431 354.3754
16.99378 356.2005 34.86013 354.4078
17.02684 356.2447 34.57043 354.4275
17.06017 356.4812 34.2738 354.4606
