時間[s] x軸周り[deg] y軸周り[deg] z軸周り[deg]
0 0 0 0
0.02 0 0 0
0.05333333 351.7155 355.0958 352.5107
0.08666666 351.4637 354.8842 352.7806
0.1181058 351.4854 354.8814 352.8133
0.1267838 351.5204 354.8575 352.8716
0.1364676 351.278 354.7317 352.7501
0.1478361 351.2654 354.7434 352.7425
0.1581502 351.2555 354.7518 352.7383
0.1698262 351.2751 354.7237 352.76
0.180687 351.2775 354.7281 352.7433
0.2089049 351.2961 354.7458 352.7661
0.2166651 351.3003 354.7345 352.774
0.2247402 351.3163 354.7987 352.796
0.2365138 351.3374 354.7746 352.8105
0.2469837 351.3472 354.7938 352.8319
0.258649 351.3573 354.7856 352.8398
0.2693167 351.3626 354.8142 352.844
0.2798128 351.358 354.7971 352.8615
0.2912413 351.1607 354.6497 352.7233
0.3028458 351.1594 354.6626 352.7124
0.3182032 351.1593 354.6623 352.7381
0.3271536 351.1488 354.6879 352.7383
0.336348 351.1605 354.6619 352.7438
0.3639084 351.1675 354.7066 352.7595
0.3724061 351.1675 354.6928 352.7656
0.3803707 351.1837 354.6701 352.7745
0.3911317 351.2051 354.6611 352.7695
0.4029232 351.222 354.6639 352.7764
0.4138305 351.232 354.6626 352.808
0.4244988 351.2431 354.6641 352.8003
0.4365849 351.2476 354.6643 352.8066
0.4463053 351.2593 354.6866 352.8363
0.4581351 351.2563 354.6776 352.834
0.4679208 351.2793 354.6776 352.8561
0.4808971 351.282 354.6663 352.8476
0.4924695 351.3044 354.6819 352.8711
0.5213172 351.3063 354.6764 352.8628
0.5304041 351.3142 354.6498 352.8806
0.5384513 351.3136 354.6666 352.8863
0.5466081 351.3162 354.659 352.8972
0.5588289 351.3151 354.6613 352.8992
0.5703841 351.3401 354.663 352.9025
0.5802644 351.3404 354.6587 352.9276
0.591207 351.1367 354.4895 352.793
0.6041164 351.0963 354.5362 352.7884
0.6154597 351.0978 354.5137 352.7907
0.6270295 351.101 354.5281 352.8017
0.6394902 351.1186 354.5123 352.801
0.651015 351.1333 354.4937 352.8167
0.6839387 351.134 354.5244 352.8187
0.6926661 351.1451 354.5368 352.8354
0.7004046 351.1786 354.5827 352.8538
0.709201 351.1897 354.5983 352.8723
0.7211568 351.1938 354.6089 352.876
0.731289 351.2374 354.6551 352.9011
0.7420303 351.2326 354.6443 352.8971
0.7538081 351.2198 354.6384 352.9248
0.7649189 351.2381 354.6646 352.9344
0.7753078 351.2441 354.6786 352.9233
0.7866541 351.2633 354.6979 352.959
0.7986665 351.2699 354.6798 352.9646
0.8091733 351.2688 354.6948 352.9762
0.841343 351.2739 354.7036 352.9794
0.8492514 351.2751 354.7123 353.0087
0.8580704 351.304 354.7226 353.0266
0.8663861 351.0095 354.5632 352.8475
0.8751001 351.0288 354.5448 352.8607
0.8871055 350.9673 354.5338 352.8209
0.8974378 350.9692 354.513 352.8364
0.9089832 351.0042 354.477 352.865
0.921177 351.0057 354.5051 352.8579
0.9311082 351.02 354.5085 352.8806
0.942971 351.0182 354.5117 352.8813
0.954277 351.0128 354.5099 352.8724
0.9647568 351.0396 354.5491 352.8933
0.9942772 351.0373 354.5388 352.8977
1.003406 351.0226 354.5386 352.9024
1.011702 350.8672 354.4218 352.7927
1.020495 350.8743 354.4161 352.7946
1.030669 350.8704 354.4086 352.8053
1.043149 350.8716 354.3981 352.8032
1.053184 350.8847 354.429 352.808
1.064019 350.8892 354.4276 352.8054
1.075606 350.9142 354.4448 352.8393
1.08794 350.9279 354.4561 352.8441
1.098756 350.92 354.4521 352.8546
1.108771 350.951 354.4735 352.8579
1.120314 350.9636 354.4702 352.8572
1.151712 350.9693 354.5022 352.894
1.158961 350.9635 354.5056 352.8868
1.167003 351.0009 354.5335 352.9325
1.176422 350.9971 354.5241 352.9483
1.187297 350.8392 354.3356 352.7798
1.198161 350.8506 354.3321 352.7939
1.210153 350.8163 354.3563 352.8027
1.220722 350.8054 354.3547 352.7894
1.231338 350.8226 354.4167 352.8088
1.243057 350.7929 354.4005 352.8459
1.254046 350.8421 354.4138 352.8917
1.264825 350.8466 354.4698 352.8861
1.275798 350.8677 354.5046 352.8494
1.309131 350.8944 354.4832 352.8882
1.317322 350.9147 354.4772 352.9189
1.325535 350.8576 354.5189 353.022
1.334779 350.7296 354.4761 352.8765
1.343272 350.7922 354.327 352.8314
1.352748 350.8185 354.1395 352.7136
1.363935 350.8582 354.027 352.6471
1.374887 350.8613 353.7235 352.7375
1.385925 350.8727 353.5294 352.8264
1.396498 350.8106 353.6858 352.7789
1.407744 350.7657 354.0005 352.912
1.418005 350.6447 354.5567 353.0662
1.431392 350.4701 355.0798 353.1763
1.462253 350.6464 355.7009 353.3123
1.471121 350.8628 356.6417 353.1826
1.479016 351.5242 357.4797 352.1656
1.487789 351.9208 357.0788 351.846
1.497329 352.0782 356.3394 351.5947
1.508419 352.3156 355.3658 351.2562
1.519209 352.5095 354.719 350.5956
1.529773 352.7658 354.7005 350.0159
1.541236 352.7909 354.9979 349.349
1.553125 353.2071 355.033 348.8407
1.563362 353.5978 354.7191 348.3902
1.574706 353.8576 354.232 348.0806
1.586949 354.2252 353.7947 347.5731
1.613937 354.6656 353.5629 347.0473
1.623037 355.2574 353.3251 346.6021
1.633572 357.3118 352.6831 345.6244
1.645772 358.911 352.386 345.1016
1.657324 0.3152082 351.9621 344.9334
1.671412 1.642298 351.3758 345.0087
1.682281 2.905812 350.543 345.2664
1.693993 4.49309 349.5037 345.4883
1.706394 6.12849 348.5646 345.4854
1.715951 8.091677 347.5844 345.2938
1.727712 10.04351 346.7704 344.9354
1.738984 12.20953 345.8891 344.3751
1.772317 14.58517 344.6898 343.6035
1.780546 16.68356 343.6643 342.7917
1.7894 20.49633 340.6783 340.6339
1.79712 21.61544 339.2737 339.7909
1.806898 23.06887 337.4816 338.7758
1.81449 24.67703 335.4901 337.6006
1.8254 26.51035 333.8341 336.3024
1.836624 28.16105 332.4035 335.0388
1.846467 30.03055 331.1904 333.844
1.857977 31.78691 329.6675 332.4701
1.869944 34.15732 327.8386 330.8477
1.880269 36.10621 325.6194 328.922
1.89145 38.02265 322.3208 325.9365
1.921272 40.00814 318.8588 322.0183
1.928804 42.04572 316.2068 319.2836
1.937263 46.89839 312.0302 313.5544
1.946497 47.38177 310.0261 309.9829
1.958306 47.81369 307.43 306.9485
1.969869 48.23107 303.886 302.926
1.979787 49.7767 299.9833 298.476
1.991131 51.75638 296.3244 294.1978
2.002342 54.08587 293.3626 290.1168
2.013022 55.63874 291.5455 287.314
2.024545 57.16959 290.3208 285.5636
2.036597 57.12327 288.5774 283.6865
2.046894 57.18251 286.618 281.2813
2.073761 57.46925 284.6506 278.6022
2.081655 58.47835 282.7083 275.4903
2.09035 60.11739 280.2304 270.0365
2.103783 60.19679 279.6252 268.177
2.113232 60.16008 279.4055 266.603
2.124572 60.38813 279.6577 265.2088
2.136427 60.71576 280.6657 264.1223
2.146731 61.43837 280.5779 262.2627
2.157739 61.65896 280.45 260.3273
2.16934 61.74253 280.0822 258.4695
2.180342 61.79744 280.2943 257.0307
2.191989 61.6455 281.3224 256.3511
2.20286 62.02162 281.9681 255.5407
2.236193 62.30642 282.4419 254.6861
2.243617 62.64988 282.6422 253.885
2.252165 62.19205 282.3275 251.7597
2.260774 61.65126 282.1455 250.7068
2.269741 61.19178 282.084 250.0288
2.280849 61.10311 282.3759 249.9778
2.290693 60.93524 282.2395 249.3311
2.302716 60.77349 281.3678 248.0928
2.313432 60.39219 280.4346 246.8421
2.324409 60.01315 279.547 245.9281
2.337317 59.22684 278.8024 244.9378
2.346659 58.34953 278.0894 244.0875
2.358632 57.45305 277.1865 243.201
2.387575 56.62484 276.4074 242.4043
2.395287 55.96096 275.8847 241.9114
2.403429 54.75853 275.3565 241.5244
2.413374 54.04382 274.5605 240.9612
2.424015 53.41409 273.8267 240.4527
2.43584 53.22963 273.1338 240.2643
2.446868 53.29835 272.4862 239.9822
2.457843 53.32471 271.946 239.9066
2.46944 53.09879 271.77 240.2405
2.479907 52.9529 272.1093 241.0342
2.491628 52.76348 272.5402 242.019
2.503699 52.99484 273.1045 243.0176
2.513803 53.27464 273.4537 243.7781
2.542371 53.84456 273.8152 244.4053
2.550478 54.48621 273.9601 244.8001
2.558389 55.592 275.2093 246.393
2.571044 56.23814 276.8271 247.9541
2.579893 56.81001 278.1955 249.3875
2.592195 57.53923 279.6548 250.9252
2.604241 58.46569 280.929 252.2471
2.61554 58.94021 282.8301 254.3891
2.627291 59.46592 284.8889 256.0023
2.63977 60.24932 286.7003 257.9382
2.651818 60.29766 287.6571 259.3384
2.663025 60.40577 289.0732 261.1433
2.675392 60.30592 291.3814 263.8873
2.704535 59.86484 294.4142 266.919
2.718233 59.80458 296.473 268.876
2.725443 60.09523 298.9624 271.215
2.734336 60.59867 300.3832 272.6706
2.743014 61.16693 301.8871 274.2332
2.754565 61.52594 303.1496 275.6493
2.76433 61.55646 304.8909 277.6108
2.777073 61.40074 307.8977 280.5058
2.788383 61.21154 310.3089 282.7363
2.79862 61.04305 312.4469 284.5427
2.810124 60.78343 313.7861 285.6006
2.821017 60.59666 315.0993 286.6042
2.832507 60.26124 316.5307 287.8076
2.863844 59.54659 318.1713 289.2984
2.873041 58.49895 320.4564 291.557
2.881969 56.63816 324.9525 296.3623
2.891052 55.88475 327.2794 299.019
2.898914 55.25139 329.083 301.4156
2.909509 54.26495 330.0051 303.0019
2.920763 53.05936 330.3988 304.1764
2.933099 51.69142 330.7632 305.1912
2.943849 50.47652 331.7497 306.4731
2.954599 49.20058 333.045 308.0691
2.965453 48.00392 334.3524 309.8247
2.977279 46.7882 336.3335 311.9362
2.988051 45.38752 338.7086 314.344
3.015021 43.99162 341.0807 316.9524
3.024687 42.52142 343.4969 319.0826
3.033661 40.84592 347.4973 322.1951
3.043316 40.80542 348.4742 322.8952
3.054672 40.77445 349.6915 323.411
3.065002 40.58554 350.9864 323.9953
3.075845 40.1266 352.505 324.9719
3.087871 39.69391 354.018 326.2229
3.097531 39.29564 355.5153 327.809
3.110285 38.70514 357.1809 329.5759
3.121454 38.08503 358.6614 331.2159
3.132767 37.24846 0.1629728 332.805
3.143357 36.08047 1.765296 334.4021
3.172335 34.47489 3.461448 336.0127
3.179632 32.40086 5.399879 337.5378
3.188356 25.98808 10.11101 340.9416
3.199694 22.15012 11.91696 342.4279
3.210328 19.05934 13.32318 343.5525
3.222091 16.86063 14.39996 344.6885
3.235237 15.99806 14.60095 345.9002
3.244106 17.87466 14.50652 346.556
3.254084 21.25292 13.9893 346.7596
3.266037 25.94636 13.31412 346.6985
3.2772 28.62622 13.20348 347.0865
3.287598 29.84604 13.33967 347.8524
3.298525 30.15349 13.45181 348.7896
3.327643 30.16863 13.53498 349.6617
3.336174 30.18886 13.43914 350.3931
3.345189 30.64555 13.789 351.1629
3.355383 30.90289 14.04865 351.2546
3.364744 31.21059 14.48519 351.5326
3.376173 31.29823 14.60835 351.7203
3.38727 31.12837 15.55852 352.3582
3.399331 30.90876 15.70258 352.7941
3.410095 30.3885 15.66167 353.0793
3.421699 30.15811 15.96444 353.3988
3.432295 29.915 16.06494 353.5315
3.442871 29.51223 16.04157 353.3146
3.454823 29.30024 16.61886 353.3632
3.481461 28.76113 17.34695 353.4687
3.490632 28.12784 18.18759 353.5218
3.499532 26.58348 19.06064 353.5199
3.510466 25.86537 19.25636 353.6255
3.521453 25.34703 19.36181 353.7988
3.53185 24.87348 19.1984 353.9612
3.543452 24.5364 19.17669 354.2255
3.554243 24.17448 19.22379 354.4745
3.5651 23.9836 19.31503 354.735
3.575502 23.50612 19.22472 354.8755
3.587128 23.03969 19.12406 355.0091
3.598752 22.51628 19.12806 355.0667
3.611373 22.05701 19.08715 355.1165
3.64076 21.56358 18.95957 355.1716
3.649116 21.17527 18.88545 355.2002
3.658007 20.3426 18.65772 355.0501
3.66715 19.98088 18.3916 354.7474
3.677325 19.68284 18.15667 354.5328
3.689085 19.37085 17.85596 354.3672
3.699572 19.11215 17.45199 354.1445
3.711099 18.8109 16.85485 353.9275
3.721428 18.5133 16.32536 353.8287
3.733457 18.35041 15.69416 353.7504
3.743465 18.40939 15.1422 353.7992
3.758103 18.31515 14.23705 353.739
3.76652 18.3105 13.09801 353.5934
3.793283 18.54449 12.16207 353.577
3.802269 18.70705 10.79687 353.4752
3.810499 19.25772 8.216379 353.3267
3.822274 19.41232 6.932843 353.2458
3.832962 19.90641 5.796337 353.1849
3.845297 20.04298 4.497848 353.0813
3.855581 19.95608 3.037767 352.7047
3.865769 20.34864 1.863076 352.4157
3.877298 20.47727 0.820268 352.3765
3.888508 20.50597 359.2487 351.9525
3.899426 20.84254 358.0211 351.7579
3.910055 21.07963 356.5399 351.5112
3.922268 21.25029 354.9084 351.1932
3.953043 21.43139 353.3806 350.9932
3.961015 21.43424 351.6414 350.7428
3.969563 21.44711 348.1607 350.1119
3.97693 21.19846 346.3413 349.6636
3.988693 20.67684 344.4028 349.1161
3.999508 20.48907 342.7719 348.8307
4.010378 20.22923 341.391 348.7083
4.022209 19.97391 339.8936 348.5264
4.033585 19.76165 338.4866 348.4507
4.04424 19.51166 337.0114 348.3704
4.05482 19.2538 335.5959 348.3748
4.065362 19.03421 334.209 348.4139
4.077917 18.613 332.6602 348.248
4.106457 18.2462 331.2155 348.0729
4.113882 17.94619 329.7305 347.8434
4.122687 17.47219 326.4457 347.413
4.13236 17.30254 324.6767 347.2618
4.143693 17.16363 322.8919 347.2025
4.155585 17.0178 320.9957 347.2845
4.166805 16.85642 319.0948 347.2087
4.177935 16.63834 317.1656 347.0964
4.18854 16.31561 315.2656 346.9922
4.198688 16.19205 313.5025 347.0956
4.210803 16.06813 311.6155 347.027
4.221703 16.23361 309.8777 347.2589
4.235073 16.11503 307.894 347.3149
4.267309 16.04391 306.1467 347.3926
4.275225 16.05986 304.602 347.5528
4.282636 15.69942 301.6939 347.5372
4.291269 15.41034 300.4034 347.5059
4.29913 15.06348 299.0502 347.5463
4.311585 14.52734 297.7017 347.4412
4.322378 14.10906 296.7514 347.4029
4.334085 13.65473 295.8286 347.3835
4.344219 13.22966 294.9822 347.3121
4.355227 12.80168 294.1483 347.2641
4.365402 12.32052 293.4525 347.2567
4.376864 11.89632 292.8489 347.2663
4.388369 11.49072 292.4789 347.2623
4.416662 11.14476 292.1045 347.3613
4.424489 10.83731 291.7255 347.4502
4.432229 10.55148 291.8494 348.0759
4.44413 10.32237 292.2015 348.3736
4.455299 10.06075 292.7389 348.701
4.465158 9.71507 293.4856 348.9856
4.47728 9.190848 294.3276 349.3108
4.489146 8.633729 295.2757 349.5401
4.499417 8.057784 296.6245 349.737
4.510034 7.563106 297.8734 349.9399
4.521917 7.151323 299.3035 350.1579
4.533034 6.73458 300.7348 350.4014
4.543819 6.276488 302.1803 350.6888
4.576029 5.759422 303.8515 351.0434
4.58459 5.266388 305.3674 351.3176
4.592202 3.87406 308.8715 351.9329
4.60072 3.251292 310.8667 352.2101
4.609875 2.889975 312.6258 352.5597
4.621784 2.055033 315.2934 352.9559
4.631962 1.423835 317.7091 353.4153
4.643126 0.9057693 319.903 353.7056
4.653675 0.4838901 322.0775 354.0704
4.664463 359.7935 324.2592 354.464
4.67579 358.8994 326.5161 354.6969
4.687532 358.1906 328.7921 354.9243
4.698147 357.4016 331.0248 354.9352
4.73148 356.4766 333.1877 354.9933
4.739888 355.3626 335.4579 354.9495
4.747958 353.1347 339.8897 354.8916
4.756672 352.2003 342.0428 355.0714
4.765616 350.9572 343.994 355.3994
4.776178 349.8878 345.8919 355.6096
4.787214 348.7585 347.6389 355.827
4.797003 347.5713 349.4725 355.9699
4.808166 346.257 351.056 356.1848
4.82017 345.2717 352.9117 356.3463
4.831095 344.5786 354.5191 356.3981
4.841725 344.0663 356.0156 356.456
4.853566 343.6024 357.3805 356.6936
4.88242 342.9945 358.6771 357.1148
4.89019 342.3804 359.9272 357.4608
4.898172 341.8331 2.584593 358.4964
4.909641 341.2009 4.188449 358.7675
4.920325 340.3553 5.766654 358.9253
4.931467 339.8848 7.581366 358.9896
4.941393 339.3133 9.59304 359.0681
4.952898 338.5963 11.64898 359.0207
4.963391 337.9544 13.39256 359.0804
4.976758 337.371 15.2751 359.2186
4.988211 336.6716 17.03542 359.3115
4.998319 336.05 18.69473 359.3405
5.009924 335.5659 20.26477 359.338
5.036519 335.2068 21.74427 359.3356
5.045782 334.8584 23.30684 359.3075
5.053948 334.6586 26.62928 359.2996
5.06371 334.8748 28.06934 359.6265
5.075696 335.0102 29.42375 0.1992775
5.086672 335.1751 30.77435 0.9713125
5.097146 335.3321 32.06784 1.724149
5.10797 335.5091 33.45866 2.362949
5.12031 335.8524 34.6453 3.033808
5.131096 336.0251 36.39826 3.051033
5.142136 336.1357 38.27948 2.84433
5.153399 336.2176 40.25123 2.510699
5.163905 336.3309 42.24415 2.118331
5.196258 336.4334 44.15395 1.863515
5.204354 336.4383 45.93567 1.779439
5.212008 336.7978 49.56086 2.189408
5.220023 337.1091 51.33054 2.395677
5.231141 337.4626 53.09052 2.682532
5.242011 337.8911 54.86294 2.96628
5.253123 338.3699 56.59654 3.240656
5.263402 338.6996 58.32564 3.415774
5.275149 338.9494 60.04358 3.511788
5.287152 339.0887 61.94943 3.516741
5.297451 339.3504 63.7153 3.570738
5.308402 339.5716 65.4602 3.590723
5.320804 339.8761 67.17268 3.709758
5.346726 340.213 68.90716 3.7898
5.354807 340.7605 70.64556 3.92064
5.363258 341.6419 72.84912 4.180387
5.372315 342.2706 73.98273 4.386927
5.379426 343.0188 75.46838 4.677852
5.387653 343.8795 76.80612 5.003157
5.397121 344.782 78.0449 5.333442
5.407891 345.8815 79.08225 5.715888
5.419795 347.061 80.15399 6.036526
5.430076 348.284 81.06966 6.398378
5.442079 349.7851 82.02716 6.685682
5.453336 351.1534 82.85674 6.920415
5.465436 352.6004 83.48633 7.209431
5.474633 353.9437 84.12441 7.452437
5.503271 355.3251 84.70191 7.62787
5.511052 356.75 85.29076 7.837213
5.520145 359.8855 86.40989 8.480076
5.530956 1.507708 86.90746 8.894265
5.542088 3.295827 87.28113 9.321945
5.553606 5.061091 87.5472 9.766697
5.563503 6.920239 87.56429 10.18354
5.575044 8.812045 87.4099 10.61431
5.586092 10.81237 87.18697 11.05132
5.596974 12.65347 86.86744 11.35457
5.607549 14.47221 86.2642 11.46855
5.618318 16.22755 85.63278 11.53173
5.630147 17.9297 84.79632 11.55341
5.66348 19.67342 83.97043 11.6375
5.671663 21.30809 83.19711 11.69934
5.679574 24.3864 81.69398 11.72101
5.688368 25.81941 80.757 11.4615
5.696064 27.17954 79.55097 11.00336
5.707585 28.31586 78.17813 10.50604
5.719213 29.18424 76.87171 10.04954
5.729611 29.98446 75.68818 9.697862
5.740526 30.71096 74.48685 9.349763
5.752527 31.56323 73.16953 8.877664
5.762641 32.25505 71.91617 8.386364
5.773683 32.85154 70.56032 7.852592
5.785153 33.39023 69.20483 7.393822
5.812353 33.77935 67.77379 6.941726
5.820771 34.17691 66.45677 6.500543
5.829441 34.88916 63.30355 5.36247
5.840944 35.1376 61.41253 4.771815
5.852162 35.42026 59.64191 4.296577
5.861923 35.72486 57.82792 3.823975
5.8737 35.98131 55.97522 3.367651
5.884195 36.15343 54.09356 2.835526
5.895514 36.15756 52.13999 2.130563
5.906458 36.06384 50.43644 1.451671
5.919691 35.99575 48.54607 0.621631
5.92966 35.84665 46.85227 359.7818
5.940374 35.61944 45.19401 359.0509
5.971672 35.48935 43.50722 358.4137
5.980199 35.4134 41.86126 357.8793
5.988514 35.2863 38.28532 356.9533
5.995996 35.11315 36.13064 356.3883
6.007503 34.87865 34.13538 355.815
6.019138 34.71431 32.14389 355.2476
6.029581 34.64652 30.33152 354.7895
6.039865 34.63795 28.49111 354.3318
6.051357 34.67449 26.58982 353.8661
6.062641 34.54448 24.54582 353.3733
6.073836 34.19045 22.53722 352.9388
6.085441 33.88067 21.10889 352.7038
6.096503 33.68582 19.6899 352.3682
6.129579 33.54782 18.46762 351.9949
6.137636 33.40723 17.28625 351.7137
6.14555 33.04718 15.20565 351.4156
6.154354 32.927 14.34896 351.4576
6.161722 32.82408 13.50661 351.5027
6.17317 32.63442 12.6743 351.4961
6.185743 32.40444 11.84533 351.454
6.195797 32.32552 11.10538 351.3506
6.207495 32.25671 10.41937 351.3016
6.218351 32.18712 9.857225 351.3093
6.229582 32.1181 9.187392 351.2773
6.240516 32.03645 8.622746 351.2895
6.251987 31.9674 8.093592 351.3268
6.280427 31.89635 7.643251 351.4537
6.289303 31.85142 7.326612 351.5813
6.297903 31.7894 6.982582 351.9266
6.307191 31.71268 7.051708 352.172
6.317963 31.67785 7.16797 352.3511
6.328807 31.5757 7.280485 352.5123
6.340946 31.38455 7.408314 352.6851
6.352366 31.18606 7.517048 352.8008
6.362291 30.9286 7.713877 352.9745
6.373453 30.76471 7.966414 353.2245
6.384796 30.66562 8.251788 353.4754
6.395515 30.53921 8.530153 353.7173
6.407357 30.35349 8.817028 354.002
6.438324 30.0976 9.252635 354.3436
6.44638 29.83872 9.767739 354.72
6.455265 29.20384 10.73913 355.3884
6.462942 28.70798 11.17139 355.6205
6.473929 28.14848 11.67167 355.8304
6.485425 27.52695 12.22543 356.0564
6.495824 26.87125 12.79374 356.3679
6.506972 26.18773 13.29143 356.5617
6.519497 25.47475 13.83201 356.8392
6.52948 24.62326 14.41345 357.0684
6.54027 23.72851 14.94433 357.2935
6.552127 22.63631 15.45988 357.5347
6.56206 21.51956 15.90887 357.7495
6.592442 20.15398 16.38959 357.9846
6.601429 18.99748 16.75905 358.1046
6.609092 16.31455 17.84133 358.367
6.620894 15.1496 18.45644 358.4642
6.631644 14.11183 19.0651 358.6454
6.647477 12.96934 19.64994 358.8205
6.655768 11.69113 20.19828 359.0699
6.665302 10.39643 20.72002 359.3133
6.675708 9.054101 21.15592 359.563
6.686604 7.77574 21.40623 359.7513
6.698089 6.284358 21.69974 359.8825
6.710177 4.907578 22.02806 359.8922
6.721094 3.666605 22.46798 359.8168
6.749218 2.635494 22.86706 359.7876
6.757298 1.691329 23.25157 359.8573
6.765149 359.6912 23.79792 0.1758364
