時間[s] タイヤの舵角[deg]
0 0
0.02 -2.15
0.05333333 -2.15
0.08666666 -2.15
0.12 -2.15
0.1533333 -2.15
0.1866667 -2.15
0.2164696 -2.15
0.2498029 -2.15
0.2831362 -2.15
0.3164696 -2.15
0.3467056 -2.15
0.380039 -2.15
0.4133723 -2.15
0.4414355 -2.15
0.469768 -2.15
0.4997992 -2.15
0.5288397 -2.15
0.5615637 -2.15
0.594897 -2.15
0.6235148 -2.15
0.6555513 -2.15
0.686752 -2.15
0.7158794 -2.15
0.7468457 -2.15
0.7751523 -2.15
0.8036116 -2.15
0.836945 -2.15
0.8663545 -2.15
0.8958367 -2.15
0.9287113 -2.15
0.9579404 -2.15
0.9896161 -2.15
1.022949 -2.15
1.054841 -2.15
1.087466 -2.15
1.118636 -2.15
1.149437 -2.15
1.180584 -2.15
1.210697 -2.15
1.242154 -2.15
1.270295 -2.15
1.303628 -2.15
1.335669 -2.15
1.364447 -2.15
1.39778 -2.15
1.431114 -2.15
1.463996 -2.15
1.493625 -2.15
1.52267 -2.15
1.553661 -2.15
1.586232 -2.15
1.61749 -2.15
1.647506 -2.15
1.680839 -2.15
1.712083 -2.15
1.744105 -2.15
1.773156 -2.15
1.804533 -2.15
1.837113 -2.15
1.870447 -2.15
1.901145 -2.15
1.931414 -2.15
1.960812 -2.15
1.991008 -2.15
2.022223 -2.15
2.053205 -2.15
2.082661 -2.15
2.115994 -2.15
2.147822 -2.15
2.179976 -2.15
2.211077 -2.15
2.24184 -2.15
2.273048 -2.15
2.306381 -2.15
2.334962 -2.15
2.365269 -2.15
2.397543 -2.15
2.429442 -2.15
2.458741 -2.15
2.490151 -2.15
2.523484 -2.15
2.552323 -2.15
2.585548 -2.15
2.618881 -2.15
2.647658 -2.15
2.679001 -2.15
2.711165 -2.15
2.744498 -2.15
2.773346 -2.15
2.802486 -2.15
2.832152 -2.15
2.862799 -2.15
2.896112 -2.15
2.927384 -2.15
2.955958 -2.15
2.989291 -2.15
3.018591 -2.15
3.049317 -2.15
3.079079 -2.15
3.110226 -2.15
3.143559 -2.15
3.174588 -2.15
3.203444 -2.15
3.233403 -2.15
3.262812 -2.15
3.292325 -2.15
3.321992 -2.15
3.355325 -2.15
3.383117 -2.15
3.41645 -2.15
3.444725 -2.15
3.478058 -2.15
3.510779 -2.15
3.540439 -2.15
3.573772 -2.15
3.605211 -2.15
3.638545 -2.15
3.668443 -2.15
3.701774 -2.15
3.734114 -2.15
3.767447 -2.15
3.798923 -2.15
3.832257 -2.15
3.864146 -2.15
3.893854 -2.15
3.922232 -2.15
3.955565 -2.15
3.987598 -2.15
4.020931 -2.15
4.054265 -2.15
4.087598 -2.15
4.120931 -2.15
4.154056 -2.15
4.184344 -2.15
4.215693 -2.15
4.244884 -2.15
4.278218 -2.15
4.307877 -2.15
4.34121 -2.15
4.374544 -2.15
4.404789 -2.15
4.435503 -2.15
4.466146 -2.15
4.49948 -2.15
4.52837 -2.15
4.561703 -2.15
4.592542 -2.15
4.625875 -2.15
4.657155 -2.15
4.690043 -2.15
4.72144 -2.15
4.75435 -2.15
4.787683 -2.15
4.821017 -2.15
4.85435 -2.15
4.887683 -2.15
4.918884 -2.15
4.952217 -1.95
4.981216 -1.7
5.011935 -1.7
5.041818 -1.3
5.072992 -1.3
5.105223 -1.05
5.138557 -0.65
5.165599 -0.65
5.194451 -0.2
5.224309 -0.2
5.255324 0
5.284534 0.2
5.317867 0.2
5.350708 0.4
5.380003 0.4
5.410157 0.4
5.440503 0.4
5.472875 0.4
5.506148 0.4
5.536405 0.4
5.569738 0.4
5.598132 0.4
5.62821 0.4
5.661234 0.4
5.694567 0.4
5.727516 0.4
5.760849 0.4
5.794182 0.4
5.82701 0.4
5.856853 0.4
5.887898 0.4
5.917384 0.4
5.947697 0.4
5.977442 0.4
6.010776 0.4
6.041243 0.4
6.074071 0.4
6.103773 0.4
6.137106 0.4
6.16736 0.4
6.200694 0.4
6.234027 0.4
6.264195 0.4
6.297369 0.4
6.330007 0.4
6.359006 0.4
6.38813 0.4
6.421463 0.4
6.454797 0.4
6.486845 0.4
6.518902 0.4
6.549899 0.4
6.583232 0.4
6.615037 0.4
6.64837 0.4
6.678495 0.4
6.708854 0.4
6.741945 0.4
6.774479 0.4
6.805644 0.4
6.838977 0.4
6.869705 0.4
6.902206 0.4
6.932065 0.4
6.962259 0.4
6.993403 0.4
7.025938 0.4
7.055352 0.4
7.088685 0.4
7.121132 0.4
7.150887 0.4
7.182422 0.4
7.214123 0.4
7.242151 0.4
7.275485 0.4
7.308818 0.4
7.33831 0.4
7.368515 0.4
7.401849 0.4
7.431089 0.4
7.462723 0.65
7.496057 0.65
7.527007 0.85
7.557762 1.05
7.590722 1.05
7.622427 1.05
7.65576 1.05
7.685534 1.05
7.718822 1.05
7.752156 1.05
7.785489 1.05
7.818822 1.05
7.851192 1.05
7.884526 1.05
7.917859 1.05
7.947435 1.05
7.97845 1.05
8.010608 1.05
8.040901 1.05
8.074234 1.05
8.107568 1.05
8.13658 1.05
8.169914 1.05
8.19835 1.05
8.231684 1.05
8.265017 1.05
8.295553 1.05
8.328887 1.05
8.3585 1.05
8.391832 1.05
8.422383 1.05
8.455717 1.05
8.48905 1.05
8.522384 1.05
8.555717 1.05
8.58425 1.05
8.617584 1.05
8.649755 1.05
8.683088 1.05
8.716421 1.05
8.746562 1.05
8.774612 1.05
8.805216 1.05
8.835835 1.05
8.869168 1.05
8.898956 1.05
8.93229 1.05
8.964961 1.05
8.994658 1.05
9.027991 1.05
9.061037 1.05
9.094371 1.05
9.127704 1.05
9.156976 1.05
9.19031 1.05
9.219988 1.05
9.253321 1.05
9.283579 1.05
9.316912 1.05
9.350245 1.05
9.379988 1.05
9.41095 1.05
9.442358 1.05
9.475692 1.05
9.509026 1.05
9.536983 1.3
9.570317 1.3
9.599637 1.5
9.629271 1.95
9.662603 1.95
9.695234 2.6
9.728568 3.05
9.761901 3.05
9.793576 3.25
9.826909 3.25
9.854611 3.25
9.88385 3.25
9.9131 3.25
9.946434 3.25
9.979767 3.25
10.0131 3.25
10.04319 3.25
10.07267 3.25
10.10169 3.25
10.13502 3.25
10.16835 3.25
10.19974 3.25
10.22855 3.25
10.26188 3.25
10.29521 3.25
10.32855 3.25
10.35856 3.25
10.39189 3.25
10.4212 3.25
10.45453 3.25
10.48357 3.25
10.51433 3.25
10.54445 3.05
10.57778 3.05
10.61111 3.05
10.64425 3.05
10.67245 3.05
10.7022 2.8
10.73059 2.6
10.76393 2.6
10.7926 2.4
10.82593 2.4
10.85309 2.4
10.88287 2.4
10.91621 2.4
10.9463 2.4
10.9796 2.4
11.01293 2.4
11.0422 2.4
11.07553 2.4
11.10395 2.4
11.13475 2.4
11.16809 2.4
11.20137 2.4
11.2347 2.4
11.26804 2.4
11.29761 2.4
11.33094 2.4
11.36312 2.4
11.39645 2.4
11.42597 2.4
11.45789 2.4
11.48748 2.4
11.52081 2.4
11.55414 2.4
11.58748 2.4
11.62081 2.4
11.65378 2.4
11.68458 2.4
11.71791 2.4
11.74974 2.4
11.77893 2.4
11.8072 2.4
11.83826 2.4
11.87159 2.4
11.90177 2.4
11.93269 2.4
11.96377 2.4
11.99405 2.4
12.02738 2.4
12.05828 2.4
12.09161 2.4
12.12269 2.4
12.15311 2.4
12.18645 2.4
12.21583 2.4
12.24521 2.4
12.27854 2.4
12.30834 2.4
12.34167 2.4
12.37197 2.4
12.40243 2.4
12.43501 2.4
12.46731 2.4
12.50064 2.4
12.53166 2.4
12.56155 2.4
12.59488 2.4
12.62822 2.4
12.66155 2.4
12.69319 2.4
12.72652 2.4
12.75528 2.4
12.78694 2.4
12.82028 2.4
12.85072 2.6
12.88405 2.6
12.91539 2.8
12.9453 2.8
12.97863 2.8
13.00765 3.05
13.03889 3.05
13.06835 3.05
13.10168 3.05
13.13501 3.05
13.1657 3.05
13.1952 3.05
13.22534 3.05
13.25559 3.05
13.28892 3.05
13.32225 3.05
13.35489 3.05
13.38419 3.05
13.41538 3.25
13.44872 3.25
13.48205 3.25
13.5107 3.25
13.54142 3.25
13.57423 3.25
13.60757 3.25
13.63734 3.25
13.67068 3.25
13.69919 3.25
13.73158 3.25
13.76492 3.25
13.79676 3.25
13.82617 3.25
13.85678 3.25
13.89011 3.25
13.92345 3.25
13.95571 3.25
13.98758 3.25
14.01743 3.25
14.05076 3.25
14.08409 3.25
14.11743 3.25
14.14901 3.25
14.18194 3.25
14.21442 3.25
14.24776 3.25
14.2767 3.25
14.31003 3.25
14.34323 3.25
14.37444 3.25
14.40777 3.25
14.43956 3.25
14.47038 3.25
14.50257 3.25
14.53409 3.25
14.56742 3.25
14.59659 3.25
14.62993 3.25
14.6597 3.25
14.6914 3.25
14.72473 3.25
14.75479 3.25
14.78668 3.25
14.81757 3.25
14.84674 3.25
14.88008 3.25
14.90918 3.25
14.94251 3.25
14.97102 3.25
15.00435 3.25
15.03768 3.25
15.06765 3.25
15.10098 3.25
15.13432 3.25
15.16356 3.25
15.19689 3.25
15.22459 3.25
15.25792 3.25
15.29125 3.25
15.32197 3.25
15.3553 3.25
15.38389 3.25
15.41182 3.25
15.44383 3.25
15.47607 3.25
15.5094 3.25
15.53764 3.25
15.56929 3.25
15.60105 3.25
15.63083 3.25
15.66416 3.25
15.69749 3.25
15.73083 3.25
15.76114 3.25
15.79298 3.25
15.82632 3.25
15.85847 3.25
15.8918 3.25
15.92415 3.25
15.95685 3.25
15.99018 3.25
16.02209 3.25
16.05542 3.25
16.08558 3.25
16.11619 3.25
16.14952 3.25
16.17836 3.25
16.21119 3.25
16.24452 3.25
16.27468 3.25
16.30801 3.25
16.34134 3.25
16.37228 3.25
16.40561 3.25
16.43534 3.25
16.46867 3.25
16.49745 3.25
16.52919 3.25
16.55789 3.25
16.58902 3.25
16.62235 3.25
16.65568 3.25
16.68819 3.25
16.72074 3.25
16.74996 3.25
16.78329 3.25
16.81113 3.25
16.84447 3.25
16.87363 3.25
16.90449 3.25
16.93782 3.25
16.96733 3.25
17.00067 3.25
17.02999 3.25
17.0621 3.25
17.09543 3.25
17.12324 3.25
17.15657 3.25
17.18536 3.25
17.21869 3.25
17.25203 3.25
17.28536 3.25
17.31542 3.25
17.3487 3.25
17.38078 3.25
17.41411 3.25
17.44296 3.25
17.4763 3.25
17.50655 3.25
17.53744 3.25
17.57077 3.25
17.60028 3.25
17.62873 3.25
17.66206 3.25
17.69164 3.25
17.72498 3.25
17.75308 3.25
17.78342 3.25
17.81556 3.25
17.84536 3.25
17.87869 3.25
17.90946 3.25
17.93917 3.25
17.96822 3.25
18.00094 3.25
18.03428 3.25
18.06257 3.25
18.09207 3.25
18.12085 3.25
18.15103 3.25
18.18436 3.25
18.21769 3.25
18.24846 3.25
18.28179 3.25
18.31164 3.25
18.34497 3.25
18.37562 3.25
18.4071 3.25
18.43989 3.25
18.47068 3.25
18.50401 3.25
18.53403 3.25
18.5639 3.25
18.59632 3.25
18.62966 3.25
18.66299 3.25
18.69174 3.25
18.7211 3.25
18.7508 3.25
18.7813 3.25
18.81464 3.25
18.84346 3.25
18.87296 3.25
18.90574 3.25
18.93537 3.25
18.9687 3.25
18.99624 3.25
19.02608 3.25
19.05942 3.25
19.0907 3.25
19.12403 3.25
19.15737 3.25
19.1858 3.25
19.21913 3.25
19.25003 3.25
19.28337 3.25
19.31257 3.25
19.34591 3.25
19.37924 3.25
19.41135 3.25
19.44468 3.25
19.47746 3.25
19.51079 3.25
19.54412 3.25
19.57315 3.25
19.60648 3.25
19.63981 3.25
19.67081 3.25
19.69847 3.25
19.7296 3.25
19.76293 3.25
19.79292 3.25
19.82141 3.25
19.85238 3.25
19.88312 3.25
19.91646 3.25
19.94924 3.25
19.98038 3.25
20.01183 3.25
20.04444 3.25
20.07777 3.25
20.10964 3.25
20.14036 3.45
20.17369 3.45
20.20482 3.9
20.23815 4.35
20.27144 4.35
20.30287 4.8
20.3362 5.2
20.36746 5.65
20.40079 5.65
20.43381 5.85
20.46519 6.1
20.49661 6.1
20.52994 6.3
20.56328 6.55
20.59661 6.55
20.62994 6.75
20.66031 6.75
20.69364 6.75
20.72697 6.95
20.75972 7.4
20.78971 7.4
20.82304 8.05
20.85637 8.5
20.88971 8.5
20.92281 9.15
20.95321 9.35
20.98378 9.35
21.01711 9.8
21.05044 10.25
21.08099 10.25
21.11432 10.7
21.14455 11.1
21.17476 11.1
21.2081 11.75
21.23859 12.45
21.27192 12.45
21.30525 13.1
21.33557 13.75
21.3689 13.75
21.39976 14.15
21.43252 14.15
21.46341 14.4
21.49674 14.6
21.53008 14.6
21.56341 14.6
21.59275 14.6
21.62463 14.6
21.65797 14.6
21.6913 14.6
21.72078 14.85
21.75162 14.85
21.78115 15.05
21.81392 15.5
21.84725 15.5
21.87904 16.15
21.9079 16.8
21.93586 16.8
21.96847 17.65
22.0018 18.3
22.03514 18.3
22.0635 19.2
22.09342 20.05
22.12175 20.05
22.15508 20.75
22.1837 21.15
22.21704 21.15
22.24682 21.6
22.2774 21.6
22.31073 22.05
22.3409 22.25
22.37192 22.25
22.40526 22.5
22.43489 22.7
22.46823 22.7
22.4971 23.15
22.52732 23.15
22.55524 23.8
22.58857 24.65
22.6219 24.65
22.65335 25.3
22.6822 26.2
22.71553 26.2
22.74886 27.05
22.7822 28.15
22.81374 28.15
22.84443 28.8
22.87423 29.7
22.90607 29.7
22.9394 30.8
22.97274 31.85
23.00075 31.85
23.03408 32.95
23.06469 33.85
23.09803 33.85
23.1274 34.7
23.16073 35.6
23.18989 35.6
23.22037 36.25
23.25371 36.25
23.28646 36.9
23.31577 37.75
23.34911 37.75
23.37818 38.85
23.41151 40.15
23.44331 40.15
23.47479 41.5
23.50389 42.8
23.53452 42.8
23.56785 43.65
23.59757 45
23.62627 45
23.65682 45.4
23.69016 45.4
23.72349 45.4
23.75341 45.2
23.78339 45.2
23.81467 45.2
23.84469 45.2
23.87802 45.2
23.90771 45.85
23.93786 46.5
23.9712 46.5
24.00076 48.25
24.0341 50.2
24.06559 50.2
24.09661 51.55
24.12634 53.3
24.15876 53.3
24.19209 54.35
24.22542 55.9
24.25306 55.9
24.28303 56.35
24.31216 56.55
24.34549 56.55
24.37609 56.55
24.40645 56.55
24.43672 56.55
24.46852 56.55
24.50186 56.55
24.53226 56.55
24.56559 56.55
24.59782 56.55
24.62762 56.55
24.66095 56.55
24.69101 56.55
24.7243 56.55
24.75365 56.55
24.78451 56.55
24.81784 56.55
24.85118 56.55
24.88039 56.55
24.91372 56.55
24.94634 56.55
24.97968 56.55
25.01025 56.75
25.04358 57
25.07256 57
25.10224 57.65
25.13558 58.3
25.16891 58.3
25.20224 59.4
25.23177 59.4
25.26123 60.5
25.29456 61.35
25.32401 61.35
25.35465 62
25.38798 62.25
25.41811 62.25
25.45145 62.25
25.48478 62.25
25.51329 62.25
25.54407 62.25
25.57439 62.25
25.60772 62.25
25.64105 62.25
25.67373 62.25
25.70448 62.25
25.73464 62.25
25.76797 62.25
25.79677 62.25
25.82947 62.25
25.85938 62.25
25.88882 62.25
25.92215 62.25
25.95548 62.25
25.98882 62.45
26.01911 62.45
26.05244 62.65
26.08234 63.1
26.11454 63.1
26.14788 63.3
26.18044 63.3
26.21378 64
26.24409 64.4
26.27315 64.4
26.30643 64.65
26.33976 65.05
26.37309 65.3
26.40417 65.3
26.4375 65.5
26.46754 65.5
26.49958 65.75
26.53292 65.95
26.56374 65.95
26.59708 66.15
26.63041 66.4
26.66241 67.05
26.69575 67.05
26.72908 67.7
26.76241 68.55
26.79185 68.55
26.82151 69.45
26.85484 70.55
26.88594 70.55
26.91928 71.85
26.95061 73.35
26.98134 73.35
27.01467 74.9
27.04457 74.9
27.0779 76.2
27.11017 77.3
27.14064 77.3
27.17398 79.25
27.20225 80.8
27.22952 80.8
27.25967 81.9
27.29301 83.4
27.32634 83.4
27.35875 84.5
27.38923 85.6
27.42085 85.6
27.45299 86.7
27.48632 87.35
27.51966 87.35
27.54983 88
27.5822 88.9
27.61164 88.9
27.64498 89.75
27.6781 91.05
27.70891 91.05
27.73893 92.15
27.76985 92.15
27.80318 93.7
27.83652 94.8
27.86765 94.8
27.8979 96.1
27.92693 96.95
27.96026 96.95
27.98928 97.6
28.02262 98.05
28.05124 98.05
28.08386 98.3
28.11719 98.3
28.14694 98.3
28.17621 98.3
28.20632 98.3
28.23573 98.3
28.26907 98.3
28.3024 98.3
28.33573 98.3
28.36474 98.3
28.39807 98.3
28.4314 98.3
28.46115 98.3
28.49224 98.3
28.52351 98.3
28.55684 98.3
28.59017 98.3
28.61894 98.3
28.65228 98.3
28.6819 98.3
28.71523 98.3
28.74856 98.3
28.77884 98.3
28.80798 98.3
28.83869 98.3
28.87203 98.05
28.90536 98.05
28.93617 98.05
28.96691 98.05
29.00024 98.05
29.03357 97.6
29.06691 97.2
29.09904 97.2
29.12788 96.55
29.15762 96.1
29.19095 96.1
29.22429 95.85
29.25389 95.2
29.28439 95.2
29.31646 94.35
29.3498 93.7
29.38313 93.7
29.41646 92.8
29.4498 91.95
29.48265 91.05
29.51598 91.05
29.54931 90.2
29.57854 89.1
29.60923 89.1
29.63745 88.25
29.66871 88.25
29.70205 87.55
29.73309 86.9
29.76642 86.9
29.79689 86.25
29.83022 85.6
29.86356 85.6
29.89224 84.75
29.92311 83.85
29.9519 83.85
29.98523 83.2
30.01856 82.55
30.0519 82.55
30.08063 82.1
30.11033 81.65
30.13997 81.65
30.1733 81.45
30.20158 81.45
30.23491 81.45
30.26397 81.45
30.29395 81.45
30.32728 81.25
30.35979 80.6
30.39052 80.6
30.42244 79.7
30.45566 78.6
30.48899 77.3
30.51962 77.3
30.55029 75.8
30.57912 75.8
30.61245 74.45
30.64578 72.5
30.67912 72.5
30.7089 70.75
30.74224 69.2
30.77557 69.2
30.8089 67.5
30.84224 65.75
30.87138 64
30.90471 64
30.93465 62.45
30.96798 61.35
30.99871 61.35
31.03147 60.05
31.06388 60.05
31.09537 58.95
31.1287 58.3
31.16075 58.3
31.19089 57.65
31.22313 57.2
31.25432 57.2
31.28765 56.55
31.31799 55.9
31.35035 55.9
31.38368 55.25
31.4143 53.95
31.44764 53.95
31.47984 53.05
31.50948 51.75
31.54282 51.75
31.57615 50.45
31.60948 49.35
31.64239 48.05
31.67456 48.05
31.70789 47.15
31.73693 45.65
31.77027 45.65
31.79922 44.3
31.82919 43
31.85798 43
31.88784 41.9
31.92117 41.25
31.95451 41.25
31.98395 40.15
32.01423 40.15
32.0433 39.5
32.07664 38.85
32.10572 38.85
32.13902 38.4
32.16747 37.35
32.19748 37.35
32.23082 36.9
32.26075 35.35
32.29028 35.35
32.3225 34.5
32.35541 33.6
32.38874 33.6
32.4174 32.5
32.44959 31.45
32.47756 31.45
32.50808 30.55
32.54141 30.35
32.57172 30.35
32.60276 30.35
32.63391 30.35
32.66725 30.35
32.70058 29.9
32.73372 28.6
32.76417 28.6
32.79323 27.3
32.82656 27.3
32.85989 25.95
32.88986 24.45
32.92264 24.45
32.9523 23.35
32.9813 22.05
33.01464 22.05
33.04391 21.15
33.07724 20.05
33.10624 20.05
33.13615 19.65
33.16949 19.65
33.19954 19.4
33.22925 19.4
33.26258 19.4
33.2921 19.4
33.32543 19.4
33.35657 19.4
33.38837 19.4
33.42171 19.4
33.45504 19.65
33.48838 19.65
33.51949 19.85
33.55029 20.05
33.58267 20.05
33.61467 20.05
33.64801 20.05
33.68134 20.05
33.71101 20.05
33.7423 20.05
33.7728 20.05
33.80614 20.05
33.83947 20.05
33.87279 20.05
33.90253 20.05
33.93216 20.05
33.9655 19.85
33.99418 19.65
34.02488 19.65
34.05542 19.4
34.08524 19
34.11858 19
34.14912 18.55
34.17879 18.55
34.21212 18.1
34.2453 18.1
34.27863 17.65
34.30798 17.65
34.34132 17.45
34.37046 17.45
34.39994 17.25
34.43327 16.8
34.46424 16.35
34.49305 16.35
34.52265 15.7
34.55548 15.7
34.58881 15.25
34.61808 14.4
34.6485 14.4
34.68183 13.95
34.71276 13.3
34.74609 13.3
34.77942 12.85
34.80814 12.45
34.84147 12.45
34.87143 12.2
34.90476 11.75
34.93529 11.75
34.96862 11.35
34.9972 10.7
35.0274 10.7
35.06073 10
35.09264 10
35.12165 9.6
35.1537 9.35
35.18703 9.35
35.22037 9.15
35.25002 9.15
35.28335 9.15
35.31668 9.15
35.34768 9.15
35.38101 9.15
35.41135 9.15
35.44178 8.95
35.47511 8.95
35.50844 8.7
35.54177 8.5
35.57495 8.3
35.60533 8.3
35.63403 8.3
35.6657 8.3
35.69904 8.3
35.73149 8.3
35.76482 8.3
35.79422 8.3
35.82403 8.3
35.85737 8.3
35.88734 8.3
35.91894 8.05
35.95227 8.05
35.98341 7.6
36.01675 7.2
36.05008 6.55
36.07793 6.55
36.11117 5.85
36.1445 5.85
36.17784 5.45
36.2111 5
36.24042 4.8
36.26944 4.8
36.30177 4.55
36.3351 4.55
36.36757 4.55
36.39651 4.55
36.42622 4.55
36.45956 4.55
36.49289 4.55
36.52549 4.15
36.55548 4.15
36.58619 3.7
36.61693 3.7
36.65026 3.25
36.68359 3.05
36.71353 3.05
36.74645 2.8
36.77542 2.8
36.80876 2.8
36.83772 2.8
36.86721 2.8
36.89763 2.8
36.92897 2.6
36.9623 2.15
36.99195 2.15
37.02528 1.5
37.0558 1.5
37.08544 1.05
37.11877 0.65
37.14966 0.65
37.18299 0.4
37.21608 0.2
37.24563 0.2
37.27896 0
37.3123 -0.2
37.34563 -0.2
37.37897 -0.2
37.40954 -0.4
37.44287 -0.4
37.47167 -0.65
37.50129 -0.65
37.53259 -0.65
37.56593 -1.05
37.59926 -1.7
37.62868 -1.7
37.65905 -2.4
37.69026 -2.6
37.7193 -2.6
37.75263 -2.8
37.78547 -2.8
37.8188 -2.8
37.8475 -2.8
37.87733 -2.8
37.91067 -2.8
37.944 -2.8
37.97272 -2.8
38.00503 -2.8
38.03627 -2.8
38.0696 -2.8
38.10294 -2.8
38.13232 -2.8
38.16197 -2.8
38.1953 -2.8
38.22864 -2.8
38.26197 -2.8
38.29362 -2.8
38.32453 -2.8
38.35619 -2.8
38.38952 -2.8
38.4185 -2.8
38.44862 -2.8
38.47738 -2.8
38.50898 -2.8
38.54231 -2.8
38.57465 -2.8
38.60761 -2.8
38.63789 -2.8
38.67122 -2.8
38.70455 -2.8
38.73664 -2.8
38.76723 -2.8
38.79596 -2.8
38.82637 -2.8
38.8597 -2.8
38.89303 -2.8
38.92163 -2.8
38.95497 -2.8
38.98512 -2.8
39.01845 -2.8
39.04719 -2.8
39.07663 -2.8
39.10579 -2.8
39.13913 -2.8
39.17246 -2.8
39.20392 -2.8
39.23365 -2.8
39.26699 -2.8
39.2975 -2.8
39.33083 -2.8
39.36365 -2.8
39.39338 -2.8
39.42559 -2.8
39.45758 -2.8
39.49091 -2.8
39.52153 -2.8
39.55486 -2.8
39.58605 -2.8
39.61769 -2.8
39.65103 -2.8
39.68073 -2.8
39.71407 -2.8
39.7474 -2.8
39.77734 -2.8
39.81068 -2.6
39.84072 -2.6
39.87202 -2.4
39.90174 -2.15
39.93464 -2.15
39.96797 -1.7
40.0013 -1.5
40.03457 -1.5
40.0679 -0.85
40.09784 -0.65
40.13118 -0.65
40.16451 -0.2
40.19747 0
40.22898 0
40.25831 0
40.29164 0
40.32241 0
40.35536 0
40.38453 0
40.41536 0
40.44869 0
40.48041 0
40.50972 0
40.5399 0
40.57323 0
40.60657 0
40.63704 0.2
40.66804 0.2
40.6981 0.4
40.7305 0.65
40.76383 0.65
40.79716 0.85
40.82625 1.05
40.85958 1.05
40.89292 1.3
40.92625 1.5
40.95708 1.5
40.9873 1.5
41.01661 1.5
41.04779 1.5
41.08113 1.5
41.1103 1.5
41.1403 1.5
41.1729 1.5
41.2017 1.5
41.23503 1.5
41.26826 1.5
41.29858 1.5
41.33142 1.5
41.36197 1.5
41.3953 1.5
41.42863 1.5
41.45913 1.5
41.49067 1.5
41.52131 1.5
41.55464 1.5
41.58797 1.5
41.62131 1.5
41.65081 1.7
41.68178 1.95
41.71511 1.95
41.74474 1.95
41.77349 1.95
41.80376 1.95
41.83296 1.95
41.86629 1.95
41.8983 1.95
41.92781 1.95
41.95667 1.95
41.99 1.95
42.02333 1.95
42.05363 1.95
42.08581 1.5
42.11914 1.3
42.14777 1.3
42.18111 1.05
42.20974 0.65
42.23985 0.65
42.26906 0.4
42.29956 0.4
42.3329 0.2
42.36335 0
42.39194 0
42.42447 0
42.45364 0
42.48697 0
42.51541 0
42.54593 0
42.57645 0
42.60632 0
42.63966 0
42.67299 0
42.70541 0
42.73527 0
42.76418 0
42.79751 0
42.82836 0
42.86169 0
42.89199 0
42.92182 0
42.95515 0
42.98449 0
43.0145 0
43.0435 0
43.07222 0
43.10555 0
43.13888 0
43.17221 0
43.20081 0
43.23072 0
43.26406 0
43.29396 0
43.32729 0
43.35747 0
43.38742 0
43.42075 0
43.44909 0
43.48051 0
43.5117 0
43.54504 0
43.57837 0
43.61161 0
43.63979 0
43.67138 0
43.70452 0
43.73785 0
43.76786 0
43.79869 0
43.8295 0
43.86283 0
43.89617 0
43.92588 0
43.95809 0
43.98784 0
44.01638 0
44.04971 0
44.07897 0
44.10897 0
44.13809 0
44.17142 0
44.20476 0
44.23775 0
44.26552 0
44.29885 0
44.33218 0
44.36552 0
44.39767 0
44.42741 0
44.45564 0
44.48898 0
44.52231 0
44.55564 0
44.58452 0
44.61517 0
44.64595 0
44.67929 0
44.70804 0
44.73785 0
44.76934 0
44.80267 0
44.83601 0
44.86767 0
44.89808 0
44.92837 0
44.95922 0
44.99256 0
45.02562 0
45.05896 0
45.09229 0
45.12413 0
45.15747 0
45.18842 -0.2
45.21803 -0.2
45.25136 -0.4
45.28059 -0.4
45.31393 -0.65
45.3426 -0.85
45.37212 -0.85
45.40102 -1.05
45.43138 -1.3
45.46471 -1.5
45.49805 -1.5
45.52719 -1.5
45.56007 -1.5
45.5934 -1.5
45.62674 -1.5
45.65565 -1.5
