時間[s] タイヤの舵角[deg]
0 0
0.02 -3.25
0.05333333 -3.25
0.08332333 -3.25
0.1022603 -3.25
0.1088774 -3.25
0.1175528 -3.25
0.1288973 -3.25
0.1405628 -3.25
0.1521701 -3.25
0.1625385 -3.25
0.1734529 -3.25
0.2067863 -3.25
0.2401196 -3.25
0.2704395 -3.25
0.2996552 -3.25
0.3303026 -3.25
0.3569257 -3.25
0.3874352 -3.25
0.4156772 -3.25
0.4431428 -3.25
0.4692574 -3.25
0.4998531 -3.25
0.5331864 -3.25
0.5665197 -3.25
0.592576 -3.25
0.6235459 -3.25
0.6568793 -3.25
0.683411 -3.25
0.7115857 -3.25
0.7403209 -3.25
0.7683391 -3.25
0.79531 -3.25
0.8213359 -3.25
0.8499166 -3.25
0.8797668 -3.25
0.9095384 -3.25
0.937709 -3.25
0.9660798 -3.25
0.9994131 -3.25
1.032746 -3.25
1.063132 -3.25
1.094402 -3.25
1.127256 -3.25
1.155895 -3.25
1.183634 -3.25
1.21475 -3.25
1.242634 -3.25
1.272312 -3.25
1.305645 -3.25
1.333783 -3.25
1.363449 -3.25
1.395271 -3.25
1.426053 -3.25
1.456782 -3.25
1.487304 -3.25
1.518174 -3.25
1.546831 -3.25
1.577739 -3.25
1.611072 -3.25
1.638942 -3.25
1.666551 -3.25
1.695238 -3.25
1.728571 -3.25
1.758385 -3.25
1.787552 -3.25
1.815144 -3.25
1.843682 -3.25
1.871724 -3.25
1.902142 -3.25
1.93131 -3.25
1.963487 -3.25
1.99166 -3.25
2.017893 -3.25
2.050217 -3.25
2.079103 -3.25
2.107216 -3.25
2.133826 -3.25
2.163802 -3.25
2.197038 -3.25
2.224328 -3.25
2.252578 -3.25
2.283198 -3.25
2.316142 -3.25
2.34893 -3.25
2.37955 -3.25
2.412616 -3.25
2.445949 -3.25
2.476431 -3.25
2.504093 -3.25
2.531767 -3.25
2.561715 -3.25
2.588315 -3.25
2.615584 -3.25
2.648917 -3.25
2.680245 -3.25
2.707817 -3.25
2.741151 -3.25
2.774346 -3.25
2.806596 -3.25
2.839469 -3.25
2.866401 -3.25
2.895276 -3.25
2.925544 -3.25
2.953472 -3.25
2.985815 -3.25
3.014677 -3.25
3.043025 -3.25
3.072099 -3.25
3.098729 -3.25
3.130615 -3.25
3.163949 -3.25
3.197282 -3.25
3.226037 -3.25
3.257652 -3.25
3.288131 -3.25
3.315833 -3.25
3.3426 -3.25
3.37145 -3.25
3.399083 -3.25
3.430245 -3.25
3.459347 -3.25
3.49268 -3.25
3.525393 -3.25
3.553365 -3.25
3.581603 -3.25
3.614937 -3.25
3.645222 -3.25
3.671028 -3.25
3.699224 -3.25
3.732558 -3.25
3.765891 -3.25
3.792685 -3.25
3.822831 -3.25
3.85081 -3.25
3.884143 -3.25
3.917476 -3.25
3.944143 -3.25
3.972745 -3.25
3.999846 -3.25
4.028886 -3.25
4.06222 -3.25
4.095553 -3.25
4.127197 -3.25
4.157395 -3.25
4.186003 -3.25
4.219337 -3.25
4.246007 -3.25
4.273107 -3.25
4.301606 -3.25
4.332643 -3.25
4.36581 -3.25
4.399144 -3.25
4.42799 -3.25
4.457882 -3.25
4.487609 -3.25
4.516327 -3.25
4.54515 -3.25
4.573921 -3.25
4.601972 -3.25
4.633936 -3.25
4.659695 -3.25
4.691961 -3.25
4.720205 -3.25
4.748043 -3.25
4.78076 -3.25
4.810248 -3.25
4.839002 -3.25
4.865812 -3.25
4.892268 -3.25
4.925602 -3.25
4.958935 -3.25
4.987098 -3.25
5.018514 -3.25
5.046845 -3.25
5.074411 -3.25
5.107744 -3.25
5.13602 -3.25
5.163953 -3.25
5.193961 -3.25
5.225759 -3.25
5.252629 -3.25
5.282059 -3.25
5.313952 -3.25
5.34602 -3.25
5.377604 -3.25
5.407924 -3.25
5.43834 -3.25
5.470608 -3.25
5.50049 -3.25
5.531098 -3.25
5.564432 -3.25
5.597765 -3.25
5.631098 -3.25
5.664432 -3.25
5.695323 -3.25
5.727592 -3.25
5.755319 -3.25
5.784227 -3.25
5.81756 -3.25
5.848984 -3.25
5.879519 -3.25
5.90976 -3.25
5.943093 -3.25
5.972094 -3.25
6.005427 -3.25
6.036346 -3.25
6.06968 -3.25
6.103013 -3.25
6.133218 -3.25
6.161364 -3.25
6.19233 -3.25
6.220803 -3.25
6.254136 -3.25
6.286335 -3.25
6.316024 -3.25
6.342965 -3.25
6.368713 -3.25
6.397698 -3.25
6.428353 -3.25
6.456422 -3.25
6.484138 -3.25
6.517297 -3.25
6.55063 -3.25
6.581034 -3.25
6.607529 -3.25
6.636461 -3.25
6.666013 -3.25
6.696427 -3.25
6.723813 -3.25
6.752465 -3.25
6.784464 -3.25
6.813868 -3.25
6.842397 -3.25
6.87573 -3.25
6.907147 -3.25
6.94048 -3.25
6.96678 -3.25
6.994764 -3.25
7.026917 -3.25
7.05529 -3.25
7.085891 -3.25
7.113944 -3.25
7.143545 -3.25
7.170787 -3.25
7.197433 -3.25
7.226417 -3.25
7.25975 -3.25
7.290218 -3.25
7.31635 -3.25
7.347813 -3.25
7.378804 -3.25
7.411254 -3.25
7.444588 -3.25
7.473752 -3.25
7.503619 -3.25
7.531958 -3.25
7.559917 -3.25
7.589283 -3.25
7.622616 -3.25
7.653491 -3.25
7.680949 -3.25
7.71196 -3.25
7.740922 -3.25
7.770196 -3.25
7.796941 -3.25
7.827405 -3.25
7.859991 -3.25
7.889242 -3.25
7.920191 -3.25
7.95281 -3.25
7.981728 -3.25
8.013118 -3.25
8.040631 -3.25
8.069071 -3.25
8.10161 -3.25
8.128938 -3.25
8.154562 -3.25
8.187175 -3.25
8.215417 -3.25
8.248751 -3.25
8.280443 -3.25
8.313777 -3.25
8.344691 -3.25
8.373215 -3.25
8.400341 -3.25
8.430989 -3.25
8.46005 -3.25
8.490079 -3.25
8.517177 -3.25
8.547071 -3.25
8.577955 -3.25
8.606266 -3.25
8.635807 -3.25
8.66914 -3.25
8.696767 -3.25
8.724638 -3.25
8.757971 -3.25
8.789682 -3.25
8.817897 -3.25
8.848633 -3.25
8.876022 -3.25
8.908393 -3.25
8.941726 -3.25
8.967548 -3.25
9.000881 -3.25
9.031221 -3.25
9.064554 -3.25
9.097888 -3.25
9.124781 -3.25
9.153931 -3.25
9.183045 -3.25
9.210916 -3.25
9.241051 -3.25
9.267368 -3.25
9.297582 -3.25
9.324435 -3.25
9.35491 -3.25
9.382878 -3.25
9.412319 -3.25
9.44405 -3.25
9.471338 -3.25
9.501281 -3.25
9.534615 -3.25
9.567947 -3.25
9.594479 -3.25
9.625256 -3.25
9.655798 -3.25
9.682261 -3.25
9.710424 -3.25
9.741283 -3.25
9.773642 -3.25
9.803066 -3.25
9.832892 -3.25
9.866225 -3.25
9.894544 -3.25
9.925248 -3.25
9.9528 -3.25
9.986134 -3.25
10.01868 -3.25
10.05178 -3.25
10.08029 -3.25
10.10938 -3.25
10.14243 -3.25
10.17191 -3.25
10.20242 -3.25
10.23574 -3.25
10.26907 -3.25
10.29731 -3.25
10.32692 -3.25
10.35673 -3.25
10.38654 -3.25
10.41752 -3.25
10.44657 -3.25
10.47847 -3.25
10.50858 -3.25
10.53927 -3.25
10.57132 -3.25
10.60288 -3.25
10.63255 -3.25
10.66588 -3.25
10.69261 -3.25
10.72027 -3.25
10.74891 -3.25
10.77612 -3.25
10.80538 -3.25
10.83466 -3.25
10.86489 -3.25
10.89823 -3.25
10.92585 -3.25
10.95445 -3.25
10.98714 -3.25
11.01644 -3.25
11.04604 -3.25
11.07623 -3.25
11.10664 -3.25
11.13798 -3.25
11.17114 -3.25
11.20022 -3.25
11.22859 -3.25
11.2573 -3.25
11.2834 -3.25
11.31447 -3.25
11.34433 -3.25
11.37492 -3.25
11.4038 -3.25
11.43187 -3.25
11.461 -3.25
11.49434 -3.25
11.52369 -3.25
11.55416 -3.25
11.58443 -3.05
11.61575 -1.95
11.64207 -1.95
11.67335 -0.4
11.7023 -0.4
11.73199 1.05
11.75838 2.15
11.78861 2.15
11.81826 2.4
11.84634 2.4
11.87916 1.95
11.9082 1.05
11.93609 1.05
11.96558 -0.85
11.99891 -0.85
12.03123 -2.6
12.06085 -3.7
12.0888 -3.7
12.11902 -4.35
12.14846 -4.35
12.17681 -4.35
12.20322 -4.35
12.23637 -4.35
12.26731 -3.9
12.29511 -3.9
12.32495 -3.05
12.35829 -1.7
12.3849 -1.7
12.41824 -0.65
12.44697 -0.65
12.47945 1.05
12.5103 1.7
12.53898 1.7
12.56991 1.7
12.60203 1.7
12.63169 1.5
12.65926 0.65
12.69257 0.65
12.72072 -0.85
12.74972 -0.85
12.78015 -1.95
12.8072 -2.8
12.83707 -2.8
12.8704 -3.25
12.89877 -3.25
12.9303 -3.25
12.95913 -3.25
12.99123 -3.25
13.01963 -2.8
13.04859 -2.8
13.07572 -2.15
13.1055 -2.15
13.13881 -0.85
13.16587 0.65
13.19654 0.65
13.22987 1.05
13.26151 1.05
13.29195 1.05
13.32296 0.65
13.35287 0.65
13.3861 -0.2
13.41784 -1.05
13.45111 -1.05
13.4796 -1.95
13.50992 -3.05
13.5388 -3.05
13.56674 -3.7
13.59688 -3.7
13.62688 -3.9
13.6555 -3.9
13.68625 -3.9
13.71701 -3.7
13.75035 -3.7
13.78368 -3.05
13.81224 -2.4
13.84557 -2.4
13.87882 -1.3
13.91094 -0.65
13.93834 -0.65
13.97142 -0.4
14.00475 -0.4
14.03348 -0.4
14.05917 -0.85
14.08778 -0.85
14.11448 -1.3
14.14781 -1.3
14.18029 -2.8
14.21194 -3.9
14.24309 -3.9
14.27075 -5
14.30408 -5.45
14.33472 -5.45
14.36261 -5.45
14.39487 -5.45
14.4213 -5.45
14.45154 -5.2
14.48487 -5.2
14.51469 -4.8
14.54311 -4.8
14.57312 -3.9
14.60454 -2.8
14.63274 -2.8
14.66209 -1.95
14.69459 -1.95
14.72153 -1.3
14.74788 -1.3
14.77366 -1.3
14.80482 -1.3
14.8338 -1.3
14.86368 -1.3
14.89021 -1.3
14.92138 -1.5
14.95207 -1.95
14.97955 -1.95
15.00745 -2.6
15.03626 -2.6
15.06525 -3.25
15.09801 -3.45
15.13135 -3.45
15.16197 -3.7
15.1953 -3.7
15.22365 -3.7
15.25563 -3.7
15.28487 -3.7
15.3182 -3.7
15.35082 -3.7
15.37879 -3.7
15.40778 -3.7
15.43699 -3.7
15.47033 -3.7
15.49799 -3.7
15.52772 -3.7
15.55661 -3.7
15.58912 -3.7
15.61858 -3.7
15.65192 -3.7
15.6803 -3.7
15.70881 -3.7
15.74098 -3.7
15.7705 -3.7
15.79931 -3.7
15.83029 -3.7
15.8574 -3.7
15.88647 -3.7
15.91621 -3.7
15.94862 -3.7
15.97836 -3.7
16.01079 -3.7
16.04009 -3.7
16.06763 -3.7
16.09687 -3.7
16.1279 -3.7
16.15781 -3.7
16.1858 -3.7
16.21552 -3.7
16.24731 -3.7
16.27552 -3.7
16.30467 -3.7
16.33696 -3.7
16.36567 -3.45
16.39465 -3.45
16.42642 -3.45
16.45776 -3.45
16.4893 -3.45
16.5204 -3.25
16.55255 -3.25
16.58046 -3.25
16.61379 -3.25
16.64435 -3.25
16.67605 -3.25
16.7022 -3.25
16.7313 -3.25
16.76463 -3.25
16.79797 -3.25
16.82673 -3.25
16.86006 -3.25
16.89187 -3.25
16.91967 -3.25
16.94745 -3.25
16.97715 -3.25
17.00694 -3.25
17.03643 -3.25
17.06343 -3.25
17.09676 -3.05
17.12742 -3.05
17.15944 -2.6
17.19278 -2.4
17.22565 -2.4
17.25615 -2.4
17.28608 -2.4
17.31599 -2.4
17.3453 -2.4
17.37463 -2.4
17.40724 -2.4
17.43515 -2.4
17.46848 -2.4
17.49713 -2.4
17.52462 -2.4
17.55154 -2.4
17.58045 -2.4
17.61237 -2.4
17.6457 -2.4
17.67556 -2.4
17.70785 -2.4
17.73868 -2.4
17.77201 -2.4
17.80467 -2.4
17.83434 -2.4
17.86214 -2.4
17.89506 -2.4
17.92459 -2.4
17.95748 -2.4
17.98437 -2.4
18.01325 -2.4
18.04072 -2.4
18.07019 -2.4
18.10154 -2.4
18.13252 -2.4
18.15863 -2.4
18.18831 -2.4
18.21739 -2.4
18.24652 -2.4
18.27982 -2.4
18.31315 -2.4
18.34646 -2.4
18.37442 -2.4
18.40741 -2.4
18.44074 -2.4
18.4698 -2.4
18.49821 -2.4
18.52711 -2.4
18.55854 -2.4
18.58785 -2.4
18.61842 -2.4
18.65082 -2.4
18.67993 -2.4
18.71326 -2.4
18.74659 -2.4
18.77416 -2.4
18.80412 -2.4
18.83532 -2.4
18.86646 -2.4
18.89913 -2.4
18.93221 -2.4
18.96446 -2.4
18.99747 -2.4
19.02438 -2.4
19.05316 -2.4
19.08274 -2.4
19.11119 -2.4
19.14134 -2.4
19.17134 -2.4
19.20175 -2.4
19.23246 -2.4
19.25955 -2.4
19.29051 -2.4
19.32384 -2.4
19.35201 -2.4
19.3849 -2.4
19.4144 -2.4
19.44466 -2.4
19.47322 -2.4
19.50191 -2.4
19.52979 -2.4
19.56151 -2.4
19.5902 -2.4
19.6215 -2.4
19.64981 -2.4
19.68183 -2.4
19.70922 -2.4
19.73748 -2.4
19.76514 -2.4
19.79594 -2.4
19.82741 -2.4
19.85618 -2.4
19.88738 -2.4
19.91901 -2.4
19.95116 -2.4
19.97824 -2.4
20.00911 -2.4
20.04065 -2.4
20.0723 -2.4
20.10436 -2.4
20.13466 -2.4
20.16652 -2.4
20.19921 -2.4
20.22615 -2.4
20.25583 -2.4
20.28537 -2.4
20.31742 -2.4
20.34382 -2.4
20.37374 -2.4
20.40294 -2.4
20.43266 -2.4
20.46021 -2.4
20.49042 -2.4
20.51927 -2.4
20.54795 -2.4
20.58128 -2.4
20.61334 -2.4
20.64555 -2.4
20.6747 -2.4
20.7022 -2.4
20.73553 -2.4
20.76544 -2.4
20.79541 -2.4
20.82377 -2.4
20.85327 -2.4
20.88625 -2.4
20.91958 -2.4
20.95045 -2.4
20.98379 -2.4
21.01644 -2.4
21.04631 -2.4
21.07617 -2.4
21.10571 -2.4
21.13627 -2.4
21.1696 -2.4
21.20054 -2.4
21.2301 -2.4
21.26344 -2.4
21.29677 -2.4
21.32586 -2.4
21.3547 -2.4
21.38267 -2.4
21.41557 -2.4
21.44295 -2.4
21.47628 -2.4
21.50611 -2.4
21.53671 -2.4
21.56453 -2.4
21.59521 -2.4
21.62749 -2.4
21.65551 -2.4
21.68275 -2.4
21.71608 -2.4
21.7463 -2.4
21.77744 -2.4
21.81077 -2.4
21.84004 -2.4
21.86818 -2.4
21.90005 -2.4
21.92893 -2.4
21.95743 -2.4
21.98926 -2.4
22.02101 -2.4
22.05264 -2.4
22.08353 -2.4
22.11509 -2.4
22.14842 -2.4
22.18171 -2.4
22.21505 -2.4
22.24838 -2.4
22.2781 -2.4
22.30651 -2.4
22.33767 -2.4
22.37101 -2.4
22.39905 -2.4
22.42915 -2.4
22.46156 -2.4
22.49141 -2.4
22.51999 -2.4
22.54933 -2.4
22.58266 -2.4
22.61253 -2.4
22.64535 -2.4
22.6722 -2.4
22.70525 -2.4
22.73521 -2.4
22.76347 -2.4
22.79611 -2.4
22.82525 -2.4
22.85232 -2.4
22.88566 -2.4
22.91459 -2.4
22.94333 -2.4
22.97308 -2.4
23.00427 -2.4
23.03178 -2.4
23.06132 -2.4
23.09465 -2.4
23.12375 -2.4
23.15177 -2.4
23.18122 -2.4
23.21072 -2.4
23.24109 -2.4
23.26761 -2.4
23.29705 -2.4
23.32838 -2.4
23.35674 -2.4
23.39007 -2.4
23.4218 -2.4
23.45513 -2.4
23.48518 -2.4
23.51254 -2.4
23.54356 -2.4
23.5751 -2.4
23.60253 -2.4
23.62931 -2.4
23.65818 -2.4
23.69151 -2.4
23.72208 -2.4
23.74973 -2.4
23.78248 -2.4
23.81093 -2.4
23.83932 -2.4
23.86718 -2.4
23.90051 -2.4
23.93212 -2.4
23.96009 -2.4
23.99343 -2.4
24.02488 -2.4
24.05808 -2.4
24.08654 -2.4
24.11716 -2.4
24.15014 -2.4
24.17934 -2.4
24.21078 -2.4
24.24339 -2.4
24.27137 -2.4
24.30248 -2.4
24.33422 -2.4
24.36086 -2.4
24.39035 -2.4
24.42368 -2.4
24.45157 -2.4
24.47903 -2.4
24.51237 -2.4
24.54102 -2.4
24.572 -2.4
24.60275 -2.4
24.63297 -2.4
24.66275 -2.4
24.694 -2.4
24.72083 -2.4
24.74969 -2.4
24.78251 -2.4
24.81584 -2.4
24.84375 -2.4
24.87541 -2.4
24.90669 -2.4
24.93742 -2.4
24.96607 -2.4
24.9994 -2.4
25.03034 -2.4
25.06322 -2.4
25.09243 -2.4
25.12443 -2.4
25.15521 -2.4
25.18414 -2.4
25.21161 -2.4
25.24216 -2.4
25.27549 -2.4
25.30882 -2.4
25.33548 -2.4
25.36882 -2.4
25.40215 -2.4
25.43548 -2.4
25.46442 -2.4
25.49372 -2.4
25.52705 -2.4
25.55508 -2.4
25.58327 -2.4
25.6166 -2.4
25.64501 -2.4
25.67229 -2.4
25.70432 -2.4
25.73346 -2.4
25.76542 -2.4
25.79875 -2.4
25.83109 -2.4
25.86424 -2.4
25.89757 -2.4
25.92494 -2.4
25.95431 -2.4
25.98618 -2.4
26.01929 -2.4
26.05044 -2.4
26.07733 -2.4
26.11066 -2.4
26.13912 -2.4
26.16716 -2.4
26.20049 -2.4
26.23173 -2.4
26.26184 -2.4
26.2926 -2.4
26.31898 -2.4
26.34997 -2.4
26.37899 -2.4
26.40877 -2.4
26.44085 -2.4
26.46968 -2.4
26.49827 -2.4
26.52537 -2.4
26.55822 -2.4
26.59155 -2.4
26.62092 -2.4
26.64851 -2.4
26.67518 -2.4
26.70353 -2.4
26.73394 -2.4
26.76475 -2.4
26.79418 -2.4
26.82457 -2.4
26.85535 -2.4
26.88868 -2.4
26.9173 -2.4
26.95063 -2.4
26.98396 -2.4
27.01123 -2.4
27.03748 -2.4
27.06646 -2.4
27.09674 -2.4
27.12427 -2.4
27.15059 -2.4
27.1813 -2.4
27.2103 -2.4
27.24142 -2.4
27.2704 -2.4
27.30373 -2.4
27.33468 -2.4
27.36296 -2.4
27.39478 -2.4
27.42471 -2.4
27.4557 -2.4
27.48409 -2.4
27.51168 -2.4
27.5413 -2.4
27.57386 -2.4
27.60719 -2.4
27.6333 -2.4
27.66496 -2.4
27.69775 -2.4
27.72932 -2.4
27.7598 -2.4
27.78997 -2.4
27.8233 -2.4
27.85664 -2.4
27.88612 -2.4
27.91945 -2.4
27.94877 -2.4
27.97633 -2.4
28.00388 -2.4
28.03627 -2.4
28.06447 -2.4
28.09609 -2.4
28.12707 -2.4
28.15811 -2.4
28.19144 -2.4
28.21823 -2.4
28.24644 -2.4
28.27627 -2.4
28.30736 -2.4
28.33803 -2.4
28.37137 -2.4
28.4047 -2.4
28.43388 -2.4
28.46594 -2.4
28.49271 -2.4
28.52435 -2.4
28.55502 -2.4
28.58422 -2.4
28.61152 -2.4
28.64459 -2.4
28.67346 -2.4
28.70679 -2.4
28.73957 -2.4
28.7689 -2.4
28.79738 -2.4
28.82874 -2.4
28.8588 -2.4
28.89213 -2.4
28.9251 -2.4
28.95443 -2.4
28.98241 -2.4
29.01573 -2.4
29.04533 -2.15
29.07538 -2.15
29.10345 -1.95
29.13268 -1.5
29.1615 -1.5
29.18975 -1.3
29.21686 -1.3
29.25019 -0.85
29.28353 -0.85
29.31483 -0.85
29.34195 -0.85
29.37362 -0.85
29.40636 -0.85
29.4353 -0.85
29.46415 -0.85
29.49663 -0.85
29.52596 -0.85
29.55682 -0.85
29.58375 -0.85
29.61225 -0.85
29.6454 -0.85
29.6741 -0.85
29.70278 -0.85
29.73331 -1.05
29.76399 -1.05
29.79151 -1.05
29.82244 -1.05
29.85294 -1.05
29.88404 -1.05
29.91205 -1.05
29.93972 -1.05
29.96902 -1.05
29.99659 -1.3
30.02942 -1.7
30.05766 -1.7
30.08908 -1.95
30.11755 -1.95
30.14962 -1.95
30.17754 -1.95
30.21087 -1.95
30.24143 -1.95
30.27017 -1.95
30.29806 -1.95
30.32734 -1.95
30.35551 -1.95
30.3844 -1.95
30.41177 -1.95
30.44263 -1.95
30.47189 -1.95
30.50015 -1.95
30.52718 -1.95
30.5563 -1.95
30.58407 -1.95
30.6136 -1.95
30.64129 -1.95
30.67238 -1.95
30.70103 -1.95
30.73226 -1.95
30.762 -1.95
30.79362 -1.95
30.82565 -1.95
30.85898 -1.95
30.88934 -1.95
30.92001 -1.95
30.9487 -1.95
30.97604 -1.95
31.00394 -1.95
31.03502 -1.95
31.0628 -1.95
31.09072 -1.95
31.12405 -1.95
31.15302 -1.95
31.18198 -1.95
31.21422 -1.95
31.24318 -1.95
31.27571 -1.95
31.30904 -1.95
31.33773 -1.95
31.36587 -1.95
31.3953 -1.95
31.42418 -2.15
31.45424 -2.15
31.48331 -2.4
31.51357 -2.4
31.54198 -2.8
31.57074 -3.05
31.5982 -3.05
31.63091 -3.05
31.6599 -3.05
31.68871 -3.05
31.71589 -3.05
31.74509 -3.05
31.77442 -3.05
31.80218 -3.05
31.831 -3.05
31.86434 -3.05
31.89468 -3.05
31.92801 -3.05
31.95524 -3.05
31.9875 -3.05
32.01637 -3.05
32.04478 -3.05
32.07179 -3.05
32.10227 -3.05
32.13065 -2.8
32.15906 -2.8
32.18823 -2.8
32.21903 -2.8
32.25236 -2.8
32.28448 -2.8
32.3157 -2.8
32.34682 -2.6
32.37766 -2.6
32.40631 -2.6
32.43565 -2.4
32.46898 -2.15
32.50232 -2.15
32.53233 -2.15
32.5596 -2.15
32.59169 -2.15
32.62331 -2.15
32.652 -2.15
32.68004 -2.15
32.71088 -2.15
32.74017 -2.15
32.77021 -2.15
32.7987 -2.15
32.82958 -1.95
32.85806 -1.95
32.89072 -1.7
32.91771 -1.7
32.94889 -1.7
32.98223 -1.7
33.01268 -1.7
33.0415 -1.7
33.0706 -1.5
33.10156 -1.5
33.13038 -0.85
33.15759 -0.85
33.18779 0.4
33.21974 1.5
33.24924 1.5
33.27727 2.4
33.30809 2.4
33.33681 2.8
33.36721 2.8
33.39567 2.8
33.42316 2.15
33.45495 2.15
33.48829 0.85
33.52056 -1.5
33.55016 -1.5
33.57969 -3.25
33.60891 -5
33.63659 -5
33.66693 -5.65
33.69581 -5.65
33.72914 -5.45
33.75816 -5.2
33.78821 -5.2
33.82154 -4.35
33.84982 -4.35
33.88316 -3.25
33.91412 -2.15
33.9446 -2.15
33.97646 -1.5
34.0072 -0.85
34.03788 -0.85
34.06949 -0.85
34.09756 -0.85
34.1245 -0.85
34.15614 -0.85
34.18559 -0.85
34.21532 -0.85
34.24365 -0.85
34.27471 0.2
34.30542 1.3
34.33384 1.3
34.36273 1.95
34.39606 1.95
34.42377 2.4
34.45214 2.8
34.47878 2.8
34.50942 3.25
34.54276 3.25
34.5708 3.9
34.60136 4.8
34.63008 4.8
34.65891 5.2
34.69184 5.2
34.72233 5.45
34.75507 5.65
34.78451 5.65
34.81658 6.1
34.84599 6.1
34.87837 6.75
34.91171 8.05
34.94504 8.05
34.97736 9.35
35.00544 10.25
35.03463 10.25
35.06384 10.9
35.0918 10.9
35.1212 12
35.14928 12
35.17743 13.1
35.20573 14.15
35.23487 14.15
35.26428 15.5
35.29761 17
35.32449 17
35.35651 18.55
35.38622 18.55
35.41522 20.3
35.44524 22.5
35.4743 22.5
35.50203 24.2
35.5348 24.2
35.56109 25.3
35.59061 25.3
35.62119 27.3
35.65453 28.35
35.68156 28.35
35.70902 29.9
35.73842 29.9
35.76712 31.65
35.79691 33.4
35.82605 33.4
35.85938 35.35
35.88855 35.35
35.91935 36.9
35.95147 38.65
35.9848 38.65
36.01366 39.95
36.0456 40.8
36.07893 40.8
36.11227 41.5
36.14197 41.9
36.17036 41.9
36.20123 42.15
36.22916 42.15
36.26245 42.55
36.29095 42.55
36.32185 42.55
36.35518 42.55
36.3855 42.55
36.41195 42.8
36.44528 42.8
36.47448 42.8
36.50653 42.8
36.53423 42.55
36.56701 42.55
36.60034 42.55
36.62992 42.35
36.65689 42.35
36.68426 41.9
36.71264 41.9
36.74477 41.5
36.77348 41.5
36.8055 41.25
36.83847 41.05
36.86944 41.05
36.89915 40.8
36.92874 40.8
36.96114 40.8
36.99301 40.8
37.0207 40.8
37.04947 40.8
37.08049 40.6
37.11383 40.6
37.14161 39.95
37.17097 39.95
37.2043 38
37.23509 34.95
37.26303 34.95
37.29636 29.45
37.32376 23.35
37.35184 23.35
37.38445 13.5
37.41502 13.5
37.4439 4.8
37.47355 -5
37.5042 -5
37.53552 -10.9
37.56885 -12.85
37.59624 -12.85
37.62457 -13.75
37.6579 -13.75
37.68506 -15.05
37.71329 -17.45
37.74057 -17.45
37.77174 -20.5
37.80478 -20.5
37.834 -23.15
37.8659 -26.65
37.89475 -26.65
37.92556 -30.35
37.954 -30.35
37.98258 -32.95
38.01521 -35.6
38.04694 -35.6
38.07645 -38.4
38.10485 -38.4
38.13365 -41.25
38.16698 -43.45
38.19511 -43.45
38.22242 -45.85
38.25061 -45.85
38.28016 -49.35
38.30805 -51.95
38.33541 -51.95
38.36813 -54.6
38.40146 -54.6
38.42971 -56.75
38.45773 -58.5
38.48529 -58.5
38.51326 -60.25
38.54336 -60.25
38.57057 -61.35
38.59867 -61.35
38.63089 -62
38.6588 -62.45
38.69201 -62.45
38.72388 -62.65
38.75721 -62.9
38.78621 -62.9
38.81319 -62.9
38.84091 -62.9
38.87098 -63.3
38.90181 -63.3
38.92989 -63.75
38.96323 -64.4
38.99069 -64.4
39.02093 -64.4
39.05125 -64.4
39.08459 -64.4
39.11244 -64.4
39.1402 -64.4
39.16871 -64.4
39.19767 -64.4
39.22862 -64.4
39.25862 -64
39.29179 -64
39.32145 -62.9
39.35414 -58.95
39.38414 -58.95
39.41314 -54.15
39.44648 -54.15
39.47918 -43.65
39.51251 -34.25
39.53923 -34.25
39.57236 -21.15
39.6004 -6.75
39.63102 -6.75
39.65933 2.8
39.68927 2.8
39.72258 7.6
39.75591 6.1
39.78321 6.1
39.81222 2.15
39.84071 2.15
39.87115 -3.45
39.89806 -8.05
39.92857 -8.05
39.95815 -13.3
39.98539 -13.3
40.01493 -16.8
40.04826 -17.9
40.07978 -17.9
40.10775 -17.9
40.13759 -17.9
40.16676 -17.9
40.19556 -17.9
40.22635 -17.9
40.25494 -17.9
40.28828 -17.9
40.32161 -17.9
40.35494 -17.9
40.38385 -17.9
40.41287 -17.9
40.44621 -18.3
40.47383 -18.3
40.50338 -19
40.53671 -19
40.56886 -19.4
40.59761 -19.4
40.62442 -19.4
40.65722 -18.75
40.688 -18.75
40.71508 -17.9
40.74244 -17.25
40.77309 -17.25
40.8014 -16.8
40.83356 -16.8
40.86183 -16.6
40.89285 -16.6
40.92619 -16.6
40.9577 -16.6
40.98593 -16.6
41.01651 -16.6
41.04491 -16.35
41.07581 -16.35
41.10552 -15.7
41.13747 -15.7
41.16674 -15.05
41.19483 -14.4
41.22139 -14.4
41.24935 -13.75
41.28269 -13.75
41.31602 -13.3
41.34935 -12.65
41.37831 -12.65
41.40738 -12.2
41.43658 -11.35
41.4641 -11.35
41.49284 -10.45
41.52463 -10.45
