時間[s] タイヤの舵角[deg]
1.481584 0
1.507324 0
1.947235 0
1.987926 0
2.01393 0
2.028376 0
2.03498 0
2.058611 0
2.084498 0
2.101479 0
2.1168 0
2.130323 0
2.157617 0
2.176005 0
2.19624 0
2.211568 0
2.227195 0
2.243548 0
2.260918 0
2.27729 0
2.293204 0
2.299493 0
2.305557 0
2.312238 0
2.318675 0
2.324469 0
2.330893 0
2.337188 0
2.34359 0
2.34952 0
2.35514 0
2.361361 0
2.368583 0
2.374763 0
2.381272 0
2.387086 0
2.393714 0
2.400176 0
2.406404 0
2.413098 0
2.41903 0
2.425553 0
2.432088 0
2.438674 0
2.444637 0
2.450568 0
2.456854 0
2.463124 0
2.469696 0
2.47628 0
2.482711 0
2.488645 0
2.494369 0
2.500487 0
2.506485 0
2.512451 0
2.518702 0
2.524483 0
2.530573 0
2.53649 0
2.542506 0
2.548851 0
2.554621 0
2.560874 0
2.567115 0
2.574517 0
2.580693 0
2.58691 0
2.592863 0
2.598699 0
2.604592 0
2.610799 0
2.616462 0
2.622433 0
2.628847 0
2.634665 0
2.640739 0
2.646525 0
2.652261 0
2.658005 0
2.66391 0
2.669689 0
2.675307 0
2.681012 0
2.68752 0
2.693285 0
2.699209 0
2.705594 0
2.712447 0
2.718836 0
2.72463 0
2.73063 0
2.737077 0
2.742988 0
2.748702 0
2.754584 0
2.761031 0
2.767171 -11.815
2.775383 -11.815
2.781618 -11.815
2.787684 -11.815
2.794711 -11.815
2.801159 -11.815
2.807179 -11.815
2.813345 -11.815
2.819572 -11.815
2.825917 -11.815
2.832167 -11.815
2.873004 -11.815
2.910433 -11.815
2.955099 -11.815
2.987593 -11.815
3.016889 -11.815
3.044037 -11.815
3.075833 -11.815
3.104138 -11.815
3.132002 -11.815
3.158586 -11.815
3.186345 -11.815
3.215373 -11.815
3.251022 -11.815
3.278437 -11.815
3.307481 -11.815
3.33564 -11.815
3.363068 -11.815
3.388723 -11.815
3.416449 -11.815
3.445771 -11.815
3.473356 -11.815
3.506573 -11.815
3.534037 -11.815
3.562158 -11.815
3.598836 -11.815
3.624987 -11.815
3.664084 -11.815
3.691749 -11.815
3.718966 -11.815
3.74561 -11.815
3.775714 -11.815
3.803338 -11.815
3.830242 -11.815
3.858182 -11.815
3.887114 -11.815
3.916143 -11.815
3.94444 -11.815
3.972621 -11.815
4.000572 -11.815
4.02848 -11.815
4.05744 -11.815
4.084877 -11.815
4.112239 -11.815
4.139299 -11.815
4.167433 -11.815
4.197375 -11.815
4.224577 -11.815
4.251866 -11.815
4.287054 -11.815
4.315149 -11.815
4.342546 -11.815
4.372288 -11.815
4.399827 -11.815
4.42626 -11.815
4.46153 -11.815
4.490776 -11.815
4.520441 -11.815
4.546677 -11.815
4.575354 -11.815
4.606592 -11.815
4.634292 -11.815
4.661322 -11.815
4.689301 -11.815
4.71792 -11.815
4.752192 -11.815
4.77942 -11.815
4.812178 -11.815
4.845415 -11.815
4.872511 -11.815
4.898909 -11.815
4.927114 -11.815
4.95744 -11.815
4.985107 -11.815
5.024154 -11.815
5.051793 -11.815
5.090792 -11.815
5.117815 -11.815
5.144565 -11.815
5.173537 -11.815
5.201543 -11.815
5.228592 -11.815
5.255267 -11.815
5.282701 -11.815
5.309981 -11.815
5.336925 -11.815
5.375457 -11.815
5.406321 -11.815
5.434418 -11.815
5.463387 -11.815
5.501803 -11.815
5.529638 -11.815
5.557714 -11.815
5.584632 -11.815
5.613166 -11.815
5.642231 -11.815
5.670975 -11.815
5.704321 -11.815
5.731255 -11.815
5.758513 -11.815
5.788245 -11.815
5.818017 -11.815
5.84841 -11.815
5.881623 -11.815
5.911204 -11.815
5.939033 -11.815
5.96913 -11.815
5.996531 -11.815
6.025336 -11.815
6.053943 -11.815
6.084058 -11.815
6.111814 -11.815
6.13899 -11.815
6.166082 -11.815
6.19295 -11.815
6.221981 -11.815
6.256597 -11.815
6.283845 -11.815
6.310343 -11.815
6.338811 -11.815
6.36717 -11.815
6.39511 -11.815
6.421199 -11.815
6.449484 -11.815
6.478686 -11.815
6.506696 -11.815
6.537167 -11.815
6.565852 -11.815
6.594161 -11.815
6.621302 -11.815
6.648339 -11.815
6.677417 -11.815
6.707307 -11.815
6.735437 -11.815
6.765947 -11.815
6.806465 -11.815
6.834667 -11.815
6.862607 -11.815
6.889648 -11.815
6.919524 -11.815
6.947949 -11.815
6.983253 -11.815
7.009319 -11.815
7.03826 -11.815
7.066754 -11.815
7.104869 -11.815
7.133322 -11.815
7.161925 -11.815
7.189708 -11.815
7.218054 -11.815
7.244125 -11.815
7.272007 -11.815
7.300186 -11.815
7.327939 -11.815
7.356709 -11.815
7.384834 -11.815
7.413991 -11.815
7.44834 -11.815
7.474837 -11.815
7.502295 -11.815
7.530876 -11.815
7.566958 -11.815
7.598011 -11.815
7.626628 -11.815
7.654912 -11.815
7.68259 -11.815
7.709671 -11.815
7.737567 -11.815
7.767202 -11.815
7.794542 -11.815
7.82053 -11.815
7.849119 -11.815
7.88523 -11.815
7.912953 -11.815
7.939612 -11.815
7.975249 -11.815
8.002666 -11.815
8.03054 -11.815
8.068135 -11.815
8.103999 -11.815
8.131103 -11.815
8.157751 -11.815
8.185313 -11.815
8.213111 -11.815
8.242172 -11.815
8.268843 -11.815
8.295451 -11.815
8.32327 -11.815
8.359267 -11.815
8.388291 -11.815
8.414777 -11.815
8.446644 -11.815
8.474377 -11.815
8.50478 -11.815
8.531149 -11.815
8.560697 -11.815
8.590628 -11.815
8.617868 -11.815
8.644511 -11.815
8.672688 -11.815
8.700735 -11.815
8.728417 -11.815
8.754889 -11.815
8.783241 -11.815
8.813971 -11.815
8.841087 -11.815
8.866984 -11.815
8.893908 -11.815
8.922479 -11.815
8.953545 -11.815
8.980352 -11.815
9.009253 -11.815
9.038811 -11.815
9.066688 -11.815
9.093708 -11.815
9.122165 -11.815
9.158629 -11.815
9.186896 -11.815
9.212748 -11.815
9.242849 -11.815
9.270937 -11.815
9.298983 -11.815
9.3284 -11.815
9.356209 -11.815
9.384439 -11.815
9.411507 -11.815
9.438765 -11.815
9.467678 -11.815
9.49554 -11.815
9.522712 -11.815
9.549351 -11.815
9.577089 -11.815
9.604555 -11.815
9.631558 -11.815
9.658551 -11.815
9.688187 -11.815
9.716532 -11.815
9.745667 -11.815
9.77317 -11.815
9.801004 -11.815
9.833077 -11.815
9.859626 -11.815
9.89495 -11.815
9.924944 -11.815
9.95423 -11.815
9.982578 -11.815
10.01997 -11.815
10.05153 -11.815
10.0795 -11.815
10.11062 -11.815
10.14836 -11.815
10.17692 -11.815
10.20548 -11.815
10.23301 -11.815
10.25959 -11.815
10.28841 -11.815
10.31728 -11.815
10.34395 -11.815
10.37071 -11.815
10.39899 -11.815
10.42661 -11.815
10.45371 -11.815
10.48034 -11.815
10.51389 -11.815
10.54426 -11.815
10.5718 -11.815
10.59849 -11.815
10.62653 -11.815
10.65455 -11.815
10.68302 -11.815
10.7098 -11.815
10.73805 -11.815
10.77046 -11.815
10.79747 -11.815
10.82443 -11.815
10.85273 -11.815
10.88103 -11.815
10.90803 -11.815
10.93552 -11.815
10.96409 -11.815
10.99375 -11.815
11.02051 -11.815
11.04658 -11.815
11.07609 -11.815
11.10892 -11.815
11.14146 -11.815
11.16894 -11.815
11.19922 -11.815
11.22769 -11.815
11.25554 -11.815
11.28237 -11.815
11.31028 -11.815
11.33881 -11.815
11.36636 -11.815
11.39325 -11.815
11.42287 -11.815
11.45057 -11.815
11.47778 -11.815
11.50442 -11.815
11.53378 -11.815
11.56453 -11.815
11.59134 -11.815
11.61829 -11.815
11.64802 -11.815
11.67557 -11.815
11.70847 -11.815
11.73522 -11.815
11.76372 -11.815
11.79232 -11.815
11.81968 -11.815
11.84794 -11.815
11.8771 -11.815
11.91272 -11.815
11.94002 -11.815
11.96741 -11.815
11.99463 -11.815
12.02286 -11.815
12.0623 -11.815
12.0909 -11.815
12.11922 -11.815
12.14702 -11.815
12.17415 -11.815
12.20111 -11.815
12.22817 -11.815
12.25799 -11.815
12.28515 -11.815
12.3131 -11.815
12.35203 -11.815
12.3918 -11.815
12.42014 -11.815
12.44677 -11.815
12.48477 -11.815
12.51254 -11.815
12.54001 -11.815
12.56648 -11.815
12.59456 -11.815
12.62248 -11.815
12.65029 -11.815
12.68302 -11.815
12.7124 -11.815
12.74054 -11.815
12.76818 -11.815
12.79583 -11.815
12.82403 -11.815
12.86313 -11.815
12.89747 -11.815
12.92361 -11.815
12.95372 -11.815
12.99319 -11.815
13.02092 -11.815
13.04765 -11.815
13.07483 -11.815
13.10466 -11.815
13.13228 -11.815
13.15892 -11.815
13.18715 -11.815
13.21944 -11.815
13.24874 -11.815
13.28452 -11.815
13.32279 -11.815
13.35084 -11.815
13.38484 -11.815
13.41132 -11.815
13.44069 -11.815
13.47924 -11.815
13.50622 -11.815
13.53347 -11.815
13.56161 -11.815
13.58929 -11.815
13.61664 -11.815
13.64392 -11.815
13.679 -11.815
13.71655 -11.815
13.74556 -11.815
13.77186 -11.815
13.79972 -11.815
13.8275 -11.815
13.85478 -11.815
13.88212 -11.815
13.90967 -11.815
13.9383 -11.815
13.96832 -11.815
13.99479 -11.815
14.02299 -11.815
14.0511 -11.815
14.08258 -11.815
14.1091 -11.815
14.13889 -11.815
14.16885 -11.815
14.19569 -11.815
14.22276 -11.815
14.25076 -11.815
14.27839 -11.815
14.30552 -11.815
14.33279 -11.815
14.36892 -11.815
14.3986 -11.815
14.4257 -11.815
14.46189 -11.815
14.48966 -11.815
14.5178 -11.815
14.54482 -11.815
14.5713 -11.815
14.60149 -11.815
14.62913 -11.815
14.65594 -11.815
14.68295 -11.815
14.71128 -11.815
14.74067 -11.815
14.76781 -11.815
14.79505 -11.815
14.82474 -11.815
14.85186 -11.815
14.87896 -11.815
14.90528 -11.815
14.93458 -11.815
14.96283 -11.815
14.98991 -11.815
15.01632 -11.815
15.04556 -11.815
15.07385 -11.815
15.10122 -11.815
15.12838 -11.815
15.15616 -11.815
15.18454 -11.815
15.21113 -11.815
15.23797 -11.815
15.27732 -11.815
15.31255 -11.815
15.33942 -11.815
15.36644 -11.815
15.39557 -11.815
15.42599 -11.815
15.45331 -11.815
15.48267 -11.815
15.51045 -11.815
15.53763 -11.815
15.5648 -11.815
15.59127 -11.815
15.61996 -11.815
15.64928 -11.815
15.67759 -11.815
15.71447 -11.815
15.74242 -11.815
15.77115 -11.815
15.80482 -11.815
15.8321 -11.815
15.85986 -11.815
15.89369 -11.815
15.92402 -11.815
15.9517 -11.815
15.9788 -11.815
16.00718 -11.815
16.03402 -11.815
16.06514 -11.815
16.09298 -11.815
16.1215 -11.815
16.15295 -11.815
16.2007 -11.815
16.2288 -11.815
16.25693 -11.815
16.28478 -11.815
16.31637 -11.815
16.34407 -11.815
16.37934 -11.815
16.40676 -11.815
16.43304 -11.815
16.46894 -11.815
16.50517 -11.815
16.53285 -11.815
16.559 -11.815
16.58887 -11.815
16.62607 -11.815
16.65379 -11.815
16.68035 -11.815
16.70862 -11.815
16.73688 -11.815
16.76958 -11.815
16.79734 -11.815
16.82593 -11.815
16.85474 -11.815
16.89289 -11.815
16.91948 -11.815
16.95449 -11.815
16.9819 -11.815
17.01026 -11.815
17.03682 -11.815
17.06991 -11.815
17.10014 -11.815
17.12955 -11.815
17.15931 -11.815
17.18722 -11.815
17.21741 -11.815
17.25188 -11.815
17.2791 -11.815
17.31539 -11.815
17.34299 -11.815
17.37054 -11.815
17.39779 -11.815
17.42735 -11.815
17.45568 -11.815
17.48354 -11.815
17.5121 -11.815
17.54059 -11.815
17.56952 -11.815
17.60386 -11.815
17.63349 -11.815
17.66192 -11.815
17.69016 -11.815
17.71771 -11.815
17.74567 -11.815
17.7732 -11.815
17.80096 -11.815
17.83132 -11.815
17.85937 -11.815
17.88772 -11.815
17.91517 -11.815
17.94198 -11.815
17.96894 -11.815
17.9963 -11.815
18.02411 -11.815
18.05118 -11.815
18.07836 -11.815
18.10939 -11.815
18.1396 -11.815
18.16697 -11.815
18.19624 -11.815
18.22432 -11.815
18.25168 -11.815
18.28131 -11.815
18.30799 -11.815
18.33644 -11.815
18.3648 -11.815
18.3917 -11.815
18.41842 -11.815
18.44763 -11.815
18.48709 -11.815
18.51515 -11.815
18.54069 -11.815
18.5697 -11.815
18.59982 -11.815
18.62702 -11.815
18.65388 -11.815
18.68332 -11.815
18.71203 -11.815
18.74117 -11.815
18.76758 -11.815
18.79638 -11.815
18.825 -11.815
18.85254 -11.815
18.87913 -11.815
18.90655 -11.815
18.93575 -11.815
18.96511 -11.815
18.99142 -11.815
19.01888 -11.815
19.04664 -11.815
19.075 -11.815
19.1017 -11.815
19.13069 -11.815
19.15908 -11.815
19.18822 -11.815
19.2152 -11.815
19.2442 -11.815
19.27363 -11.815
19.30052 -11.815
19.32738 -11.815
19.35562 -11.815
19.38335 -11.815
19.41218 -11.815
19.43959 -11.815
19.46824 -11.815
19.49606 -11.815
19.52306 -11.815
19.5492 -11.815
19.57816 -11.815
19.60692 -11.815
19.63593 -11.815
19.66263 -11.815
19.69092 -11.815
19.71958 -11.815
19.74694 -11.815
19.77374 -11.815
19.80139 -11.815
19.82976 -11.815
19.86358 -11.815
19.8893 -11.815
19.9165 -11.815
19.94531 -11.815
19.97385 -11.815
20.00034 -11.815
20.03105 -11.815
20.0606 -11.815
20.08865 -11.815
20.11534 -11.815
20.14392 -11.815
20.17263 -11.815
20.20143 -11.815
20.23526 -11.815
20.26462 -11.815
20.29233 -11.815
20.31983 -11.815
20.34602 -11.815
20.37366 -11.815
20.40141 -11.815
20.43142 -11.815
20.45882 -11.815
20.48836 -11.815
20.51877 -11.815
20.54582 -11.815
20.57371 -11.815
20.60438 -11.815
20.6322 -11.815
20.66088 -11.815
20.6893 -11.815
20.71899 -11.815
20.74762 -11.815
20.77434 -11.815
20.80141 -11.815
20.82915 -11.815
20.8567 -11.815
20.89012 -11.815
20.91795 -11.815
20.94615 -11.815
20.97418 -11.815
21.00477 -11.815
21.03658 -11.815
21.06395 -11.815
21.09284 -11.815
21.12129 -11.815
21.15621 -11.815
21.18368 -11.815
21.21166 -11.815
21.23988 -11.815
21.27041 -11.815
21.29886 -11.815
21.32815 -11.815
21.35542 -11.815
21.38151 -11.815
21.4101 -11.815
21.43921 -11.815
21.46585 -11.815
21.49996 -11.815
21.53952 -11.815
21.56818 -11.815
21.59566 -11.815
21.62175 -11.815
21.65082 -11.815
21.68944 -11.815
21.72692 -11.815
21.7551 -11.815
21.78239 -11.815
21.81107 -11.815
21.83868 -11.815
21.86505 -11.815
21.89461 -11.815
21.92375 -11.815
21.95255 -11.815
21.9844 -11.815
22.01185 -11.815
22.03915 -11.815
22.07404 -11.815
22.10977 -11.815
22.13939 -11.815
22.17535 -11.815
22.20438 -11.815
22.23147 -11.815
22.26918 -11.815
22.29777 -11.815
22.33481 -11.815
22.36089 -11.815
22.38925 -11.815
22.41812 -11.815
22.44567 -11.815
22.47225 -11.815
22.50063 -11.815
22.52794 -11.815
22.55517 -11.815
22.58399 -11.815
22.61416 -11.815
22.64325 -11.815
22.67022 -11.815
22.69597 -11.815
22.72411 -11.815
22.75353 -11.815
22.78113 -11.815
22.80773 -11.815
22.83596 -11.815
22.86638 -11.815
22.89351 -11.815
22.93094 -11.815
22.96002 -11.815
22.98751 -11.815
23.01464 -11.815
23.04055 -11.815
23.06999 -11.815
23.09907 -11.815
23.12606 -11.815
23.1526 -11.815
23.17987 -11.815
23.20835 -11.815
23.23876 -11.815
23.26607 -11.815
23.29544 -11.815
23.32346 -11.815
23.35731 -11.815
23.38371 -11.815
23.41214 -11.815
23.44003 -11.815
23.46912 -11.815
23.49626 -11.815
23.52668 -11.815
23.55419 -11.815
23.58166 -11.815
23.60863 -11.815
23.64928 -11.815
23.67747 -11.815
23.70695 -11.815
23.73299 -11.815
23.76174 -11.815
23.79751 -11.815
23.82493 -11.815
23.85133 -11.815
23.8796 -11.815
23.91025 -11.815
23.9425 -11.815
23.96936 -11.815
23.99705 -11.815
24.02423 -11.815
24.052 -11.815
24.07855 -11.815
24.10691 -11.815
24.13688 -11.815
24.16493 -11.815
24.19985 -11.815
24.22814 -11.815
24.25638 -11.815
24.28409 -11.815
24.31504 -11.815
24.34549 -11.815
24.37343 -11.815
24.40102 -11.815
24.43137 -11.815
24.45983 -11.815
24.48944 -11.815
24.51995 -11.815
24.54877 -11.815
24.58448 -11.815
24.61983 -11.815
24.64725 -11.815
24.67696 -11.815
24.7054 -11.815
24.73359 -11.815
24.76235 -11.815
24.78789 -11.815
24.81638 -11.815
24.84406 -11.815
24.871 -11.815
24.89757 -11.815
24.92587 -11.815
24.95522 -11.815
24.98534 -11.815
25.01217 -11.815
25.04001 -11.815
25.06731 -11.815
25.0944 -11.815
25.12169 -11.815
25.14988 -11.815
25.1773 -11.815
25.20636 -11.815
25.23321 -11.815
25.26083 -11.815
25.28821 -11.815
25.31605 -11.815
25.34409 -11.815
25.37222 -11.815
25.40211 -11.815
25.43094 -11.815
25.4577 -11.815
25.48561 -11.815
25.51304 -11.815
25.54057 -11.815
25.56701 -11.815
25.59619 -11.815
25.62448 -11.815
25.6541 -11.815
25.68122 -11.815
25.71017 -11.815
25.73842 -11.815
25.7666 -11.815
25.79372 -11.815
25.82201 -11.815
25.85028 -11.815
25.8796 -11.815
25.90565 -11.815
25.9357 -11.815
25.96471 -11.815
25.99355 -11.815
26.01992 -11.815
26.04801 -11.815
26.07829 -11.815
26.10797 -11.815
26.13478 -11.815
26.16342 -11.815
26.19244 -11.815
26.21893 -11.815
26.24526 -11.815
26.27615 -11.815
26.30297 -11.815
26.33227 -11.815
26.35848 -11.815
26.39037 -11.815
26.41853 -11.815
26.44593 -11.815
26.47392 -11.815
26.50727 -11.815
26.54213 -11.815
26.57443 -11.815
26.60469 -11.815
26.63333 -11.815
26.66116 -11.815
26.68853 -11.815
26.71518 -11.815
26.746 -11.815
26.77888 -11.815
26.80729 -11.815
26.83867 -11.815
26.86694 -11.815
26.89482 -11.815
26.92244 -11.815
26.95291 -11.815
26.98997 -11.815
27.0171 -11.815
27.04488 -11.815
27.07116 -11.815
27.10075 -11.815
27.12841 -11.815
27.15804 -11.815
27.18371 -11.815
27.21146 -11.815
27.23975 -11.815
27.27561 -11.815
27.31343 -11.815
27.34214 -11.815
27.37257 -11.815
27.4017 -11.815
27.42815 -11.815
27.45645 -11.815
27.48502 -11.815
27.51271 -11.815
27.53905 -11.815
27.56688 -11.815
27.5971 -11.815
27.62463 -11.815
27.65121 -11.815
27.67945 -11.815
27.70807 -11.815
27.74004 -11.815
27.77095 -11.815
27.80071 -11.815
27.82965 -11.815
27.85644 -11.815
27.88341 -11.815
27.91152 -11.815
27.93994 -11.815
27.96911 -11.815
27.99542 -11.815
28.02494 -11.815
28.05308 -11.815
28.08152 -11.815
28.10835 -11.815
28.13702 -11.815
28.16483 -11.815
28.19196 -11.815
28.21868 -11.815
28.25398 -11.815
28.28251 -11.815
28.31005 -11.815
28.33717 -11.815
28.36669 -11.815
28.39562 -11.815
28.42374 -11.815
28.45102 -11.815
28.47804 -11.815
28.5151 -11.815
28.54224 -11.815
28.56862 -11.815
28.59679 -11.815
28.62513 -11.815
28.66121 -11.815
28.68853 -11.815
28.71605 -11.815
28.74459 -11.815
28.77227 -11.815
28.79862 -11.815
28.82757 -11.815
28.86423 -11.815
28.89263 -11.815
28.91967 -11.815
28.94992 -11.815
28.9773 -11.815
29.00915 -11.815
29.04664 -11.815
29.07616 -11.815
29.11219 -11.815
29.1395 -11.815
29.16644 -11.815
29.19422 -11.815
29.22196 -11.815
29.24862 -11.815
29.27648 -11.815
29.30513 -11.815
29.33265 -11.815
29.35957 -11.815
29.38699 -11.815
29.41512 -11.815
29.44491 -11.815
29.472 -11.815
29.49997 -11.815
29.5286 -11.815
29.55701 -11.815
29.58444 -11.815
29.61158 -11.815
29.64038 -11.815
29.66784 -11.815
29.6953 -11.815
29.72368 -11.815
29.75147 -11.815
29.77994 -11.815
29.80756 -11.815
29.83512 -11.815
29.86316 -11.815
29.89137 -11.815
29.9231 -11.815
29.9522 -11.815
29.98128 -11.815
30.01056 -11.815
30.03809 -11.815
30.06454 -11.815
30.09285 -11.815
30.13057 -11.815
30.16868 -11.815
30.19559 -11.815
30.22379 -11.815
30.25122 -11.815
30.27938 -11.815
30.30578 -11.815
30.33382 -11.815
30.36351 -11.815
30.39165 -11.815
30.41857 -11.815
30.44604 -11.815
30.47382 -11.815
30.50136 -11.815
30.5295 -11.815
30.55828 -11.815
30.58915 -11.815
30.61584 -11.815
30.64302 -11.815
30.67102 -11.815
30.69898 -11.815
30.72634 -11.815
30.75295 -11.815
30.78219 -11.815
30.81216 -11.815
30.84012 -11.815
30.87321 -11.815
30.90185 -11.815
30.9285 -11.815
30.96474 -11.815
30.99306 -11.815
31.02269 -11.815
31.04997 -11.815
31.0905 -11.815
31.12064 -11.815
31.15508 -11.815
31.18305 -11.815
31.21058 -11.815
31.23802 -11.815
31.26655 -11.815
31.29605 -11.815
31.32333 -11.815
31.34982 -11.815
31.37902 -11.815
31.40638 -11.815
31.43411 -11.815
31.46252 -11.815
31.49091 -11.815
31.52397 -11.815
31.55268 -11.815
31.5917 -11.815
31.62646 -11.815
31.65469 -11.815
31.68423 -11.815
31.71177 -11.815
31.73924 -11.815
31.76751 -11.815
31.7945 -11.815
31.82169 -11.815
31.84942 -11.815
31.87734 -11.815
31.90591 -11.815
31.93828 -11.815
31.97641 -11.815
32.00419 -11.815
32.03157 -11.815
32.05848 -11.815
32.08598 -11.815
32.1156 -11.815
32.14243 -11.815
32.16898 -11.815
32.19667 -11.815
32.22419 -11.815
32.25257 -11.815
32.28029 -11.815
32.30819 -11.815
32.33781 -11.815
32.36752 -11.815
32.39367 -11.815
32.42251 -11.815
32.45083 -11.815
32.47758 -11.815
32.50475 -11.815
32.53354 -11.815
32.56292 -11.815
32.59039 -11.815
32.61804 -11.815
32.6461 -11.815
32.67545 -11.815
32.70344 -11.815
32.73005 -11.815
32.75889 -11.815
32.80077 -11.815
32.82767 -11.815
32.8597 -11.815
32.8881 -11.815
32.91548 -11.815
32.95174 -11.815
32.97898 -11.815
33.01146 -11.815
33.03919 -11.815
33.07515 -11.815
33.10171 -11.815
33.12971 -11.815
33.1576 -11.815
33.1846 -11.815
33.21209 -11.815
33.2455 -11.815
33.27281 -11.815
33.30023 -11.815
33.32755 -11.815
33.36267 -11.815
33.39388 -11.815
33.42596 -11.815
33.45346 -11.815
33.48198 -11.815
33.51352 -11.815
33.54034 -11.815
33.56664 -11.815
33.59504 -11.815
33.6245 -11.815
33.65099 -11.815
33.67727 -11.815
33.7052 -11.815
33.7333 -11.815
33.76189 -11.815
33.78761 -11.815
33.81915 -11.815
33.8497 -11.815
33.87715 -11.815
33.90356 -11.815
33.93246 -11.815
33.96714 -11.815
33.9943 -11.815
34.02082 -11.815
34.05173 -11.815
34.08131 -11.815
34.10894 -11.815
34.1357 -11.815
34.16265 -11.815
34.19053 -11.815
34.21773 -11.815
34.25675 -11.815
34.28653 -11.815
34.3144 -11.815
34.34259 -11.815
34.36889 -11.815
34.4006 -11.815
34.44218 -11.815
34.47843 -11.815
34.50638 -11.815
34.53482 -11.815
34.56236 -11.815
34.58905 -11.815
34.61824 -11.815
34.64615 -11.815
34.67604 -11.815
34.70343 -11.815
34.73151 -11.815
34.76084 -11.815
34.78912 -11.815
34.81735 -11.815
34.84664 -11.815
34.87424 -11.815
34.90287 -11.815
34.92973 -11.815
34.96035 -11.815
34.98795 -11.815
35.01922 -11.815
35.05719 -11.815
35.08532 -11.815
