時間[s] タイヤの舵角[deg]
0 0
0.02 19.4
0.05333333 19.4
0.08666666 19.4
0.12 19.4
0.152883 19.4
0.1827368 19.4
0.2112451 19.4
0.2401325 19.4
0.2683961 19.4
0.2976241 19.4
0.3273839 19.4
0.3587704 19.4
0.3921037 19.4
0.4254371 19.4
0.4587704 19.4
0.489748 19.4
0.5220649 19.4
0.5503379 19.4
0.5778151 19.4
0.6067252 19.4
0.6344606 19.4
0.6677939 19.4
0.6964539 19.4
0.7270225 19.4
0.7603558 19.4
0.7936892 19.4
0.8216202 19.4
0.8549535 19.4
0.8882868 19.4
0.9176322 19.4
0.9488395 19.4
0.9783815 19.4
1.011715 19.4
1.045048 19.4
1.077597 19.4
1.11093 19.4
1.141259 19.4
1.170678 19.4
1.200401 19.4
1.231023 19.4
1.259307 19.4
1.29264 19.4
1.321635 19.4
1.354058 19.4
1.387391 19.4
1.41457 19.4
1.444486 19.4
1.47339 19.4
1.506723 19.4
1.538262 19.4
1.569533 19.4
1.600363 19.4
1.628947 19.4
1.661985 19.4
1.690514 19.4
1.718538 19.4
1.751872 19.4
1.783 19.4
1.810899 19.4
1.843623 19.4
1.87438 19.4
1.903945 19.4
1.937279 19.4
1.968351 19.4
1.995983 19.4
2.02477 19.4
2.054312 19.4
2.081868 19.4
2.115201 19.4
2.148396 19.4
2.177054 19.4
2.209596 19.4
2.239123 19.4
2.270058 19.4
2.299346 19.4
2.33 19.4
2.359512 19.4
2.392845 19.4
2.425169 19.4
2.453715 19.4
2.484215 19.4
2.515658 19.4
2.545259 19.4
2.576817 19.4
2.61015 19.4
2.641534 19.4
2.674867 19.4
2.7082 19.4
2.739801 19.4
2.768698 19.4
2.802031 19.4
2.832563 19.4
2.865897 19.4
2.897165 19.4
2.929369 19.4
2.962702 19.4
2.99187 19.4
3.019843 19.4
3.053177 19.4
3.082305 19.4
3.110574 19.4
3.141669 19.4
3.175002 19.4
3.208335 19.4
3.241669 19.4
3.275002 19.4
3.302882 19.4
3.33394 19.4
3.364596 19.4
3.394848 19.4
3.423995 19.4
3.45321 19.4
3.481069 19.4
3.510929 19.4
3.544263 19.4
3.57597 19.4
3.608351 19.4
3.637117 19.4
3.664375 19.4
3.692551 19.4
3.72578 19.4
3.753856 19.4
3.785589 19.4
3.814338 19.4
3.842026 19.4
3.869916 19.4
3.898419 19.4
3.92973 19.4
3.963063 19.4
3.993496 19.4
4.026639 19.4
4.056767 19.4
4.0901 19.4
4.119184 19.4
4.148464 19.4
4.181798 19.4
4.209583 19.4
4.239468 19.4
4.271194 19.4
4.304528 19.4
4.33416 19.4
4.364053 19.4
4.396646 19.4
4.426055 19.4
4.455654 19.4
4.486002 19.4
4.519336 19.4
4.551474 19.4
4.578685 19.4
4.607819 19.4
4.636729 19.4
4.664556 19.4
4.695496 19.4
4.722405 19.4
4.751259 19.4
4.784592 19.4
4.813444 19.4
4.840341 19.4
4.870568 19.4
4.900476 19.4
4.93381 19.4
4.967143 19.4
4.99924 19.4
5.029444 19.4
5.058302 19.4
5.088978 19.4
5.120222 19.4
5.152493 19.4
5.184905 19.4
5.21372 19.4
5.242256 19.4
5.270704 19.4
5.299153 19.4
5.32993 19.4
5.359046 19.4
5.389987 19.4
5.419006 19.4
5.448114 19.4
5.478321 19.4
5.511081 19.4
5.542942 19.4
5.576275 19.4
5.609609 19.4
5.638029 19.4
5.667385 19.4
5.695996 19.4
5.724458 19.4
5.753233 19.4
5.78363 19.4
5.813459 19.4
5.845404 19.4
5.874719 19.4
5.908052 19.4
5.937059 19.4
5.970393 19.4
6.001992 19.4
6.032475 19.4
6.065808 19.4
6.093708 19.4
6.122215 19.4
6.15509 19.4
6.188424 19.4
6.218065 19.4
6.250489 19.4
6.283823 19.4
6.31139 19.4
6.341932 19.4
6.373219 19.4
6.40246 19.4
6.432677 19.4
6.461442 19.4
6.489924 19.4
6.520183 19.4
6.553516 19.4
6.583291 19.4
6.615399 19.4
6.648733 19.4
6.67738 19.4
6.707085 19.4
6.736693 19.4
6.769141 19.4
6.797808 19.4
6.826995 19.4
6.860055 19.4
6.890114 19.4
6.921613 19.4
6.950303 19.4
6.979313 19.4
7.012647 19.4
7.039367 19.4
7.06781 19.4
7.097319 19.4
7.127154 19.4
7.157719 19.4
7.189386 19.4
7.222661 19.4
7.255995 19.4
7.286265 19.4
7.315467 19.4
7.345617 19.4
7.375625 19.4
7.408413 19.4
7.436223 19.4
7.4658 19.4
7.494673 19.4
7.526072 19.4
7.556299 19.4
7.586229 19.4
7.61671 19.4
7.649475 19.4
7.68051 19.4
7.710189 19.4
7.743523 19.4
7.771646 19.4
7.80498 19.4
7.833501 19.4
7.862921 19.4
7.896255 19.4
7.926879 19.4
7.955103 19.4
7.988437 19.4
8.021562 19.4
8.052484 19.4
8.081872 19.4
8.111322 19.4
8.141982 19.4
8.175315 19.4
8.208352 19.4
8.240098 19.4
8.269054 19.4
8.297215 19.4
8.32669 19.4
8.360023 19.4
8.388363 19.4
8.418284 19.4
8.447494 19.4
8.480826 19.4
8.51416 19.4
8.547493 19.4
8.577174 19.4
8.606877 19.4
8.64021 19.4
8.66779 19.4
8.697526 19.4
8.728314 19.4
8.761504 19.4
8.794716 19.4
8.823749 19.4
8.857081 19.4
8.885654 19.4
8.918987 19.4
8.950504 19.4
8.978832 19.4
9.01035 19.4
9.038459 19.4
9.067187 19.4
9.097955 19.4
9.127042 19.4
9.160375 19.4
9.190908 19.4
9.221886 19.4
9.253583 19.4
9.283102 19.4
9.313392 19.4
9.342078 19.4
9.371426 19.4
9.402129 19.4
9.429991 19.4
9.458302 19.4
9.489327 19.4
9.518172 19.4
9.546977 19.4
9.577423 19.4
9.610639 19.4
9.641791 19.4
9.671838 19.4
9.702171 19.4
9.731328 19.4
9.764661 19.4
9.797806 19.4
9.82693 19.4
9.85579 19.4
9.888262 19.4
9.916971 19.4
9.950304 19.4
9.979445 19.4
10.01278 19.4
10.04284 19.4
10.07193 19.4
10.10526 19.4
10.13855 19.4
10.16883 19.4
10.2012 19.4
10.23454 19.4
10.26251 19.4
10.294 19.4
10.32734 19.4
10.36067 19.4
10.39361 19.4
10.42365 19.4
10.45698 19.4
10.48971 19.4
10.52179 19.4
10.55106 19.4
10.5844 19.4
10.61321 19.4
10.64064 19.4
10.67354 19.4
10.7019 19.4
10.73004 19.4
10.76338 19.4
10.79207 19.4
10.82051 19.4
10.85224 19.4
10.88076 19.4
10.90931 19.4
10.94034 19.4
10.97223 19.4
11.00076 19.4
11.03045 19.4
11.05901 19.4
11.08894 19.4
11.11994 19.4
11.14861 19.4
11.17893 19.4
11.20783 19.4
11.23638 19.4
11.26972 19.4
11.30305 19.4
11.3324 19.4
11.3644 19.4
11.39773 19.4
11.42797 19.4
11.45727 19.4
11.48673 19.4
11.51575 19.4
11.54312 19.4
11.57311 19.4
11.60139 19.4
11.62805 19.4
11.65894 19.4
11.68984 19.4
11.71801 19.4
11.74757 19.4
11.77829 19.4
11.81163 19.4
11.84177 19.4
11.87078 19.4
11.90199 19.4
11.9298 19.4
11.96106 19.4
11.99123 19.4
12.0204 19.4
12.04965 19.4
12.07738 19.4
12.11072 19.4
12.14257 19.4
12.17283 19.4
12.2049 19.4
12.23437 19.4
12.26209 19.4
12.29431 19.4
12.32765 19.4
12.35635 19.4
12.38649 19.4
12.41538 19.4
12.44412 19.4
12.47408 19.4
12.50351 19.4
12.53104 19.4
12.56437 19.4
12.59342 19.4
12.62675 19.4
12.66008 19.4
12.68861 19.4
12.71775 19.4
12.75108 19.4
12.78131 19.4
12.81191 19.4
12.84043 19.4
12.86965 19.4
12.89966 19.4
12.92679 19.4
12.95465 19.4
12.9824 19.4
13.01246 19.4
13.04093 19.4
13.06856 19.4
13.10027 19.4
13.13092 19.4
13.15906 19.4
13.18778 19.4
13.21746 19.4
13.24938 19.4
13.27944 19.4
13.30842 19.4
13.33722 19.4
13.3689 19.4
13.40224 19.4
13.43557 19.4
13.46335 19.4
13.49401 19.4
13.52578 19.4
13.55741 19.4
13.58711 19.4
13.61927 19.4
13.64921 19.4
13.68254 19.4
13.71033 19.4
13.7396 19.4
13.77116 19.4
13.80059 19.4
13.83084 19.4
13.86262 19.4
13.89579 19.4
13.92351 19.4
13.95663 19.4
13.98629 19.4
14.01568 19.4
14.04665 19.4
14.07738 19.4
14.11071 19.4
14.13999 19.4
14.17038 19.4
14.20057 19.4
14.23219 19.4
14.26552 19.4
14.29342 19.4
14.32622 19.4
14.35436 19.4
14.38373 19.4
14.41619 19.4
14.44952 19.4
14.48271 19.4
14.51047 19.4
14.53951 19.4
14.56751 19.4
14.59781 19.4
14.62824 19.4
14.65717 19.4
14.69051 19.4
14.72005 19.4
14.74915 19.4
14.77974 19.4
14.8119 19.4
14.84 19.4
14.87334 19.4
14.90054 19.4
14.93387 19.4
14.96563 19.4
14.99846 19.4
15.02734 19.4
15.06067 19.4
15.08823 19.4
15.11677 19.4
15.15011 19.4
15.18201 19.4
15.21289 19.4
15.241 19.4
15.27433 19.4
15.30767 19.4
15.34001 19.4
15.36821 19.4
15.39917 19.4
15.42914 19.4
15.45746 19.4
15.49076 19.4
15.5216 19.4
15.55493 19.4
15.58583 19.4
15.61739 19.4
15.64682 19.4
15.67967 19.4
15.70959 19.4
15.73709 19.4
15.76524 19.4
15.79593 19.4
15.82926 19.4
15.85795 19.4
15.89129 19.4
15.92076 19.4
15.95054 19.4
15.98127 19.4
16.01403 19.4
16.04737 19.4
16.07835 19.4
16.10901 19.4
16.14116 19.4
16.17319 19.4
16.20109 19.4
16.22894 19.4
16.25846 19.4
16.29045 19.4
16.32378 19.4
16.35407 19.4
16.3874 19.4
16.42074 19.4
16.45204 19.4
16.48347 19.4
16.51681 19.4
16.54776 19.4
16.57984 19.4
16.61309 19.4
16.64234 19.4
16.67567 19.4
16.70444 19.4
16.73597 19.4
16.76635 19.4
16.7958 19.4
16.82738 19.4
16.8584 19.4
16.89174 19.4
16.92507 19.4
16.95796 19.4
16.99018 19.4
17.02351 19.4
17.05316 19.4
17.08474 19.4
17.11615 19.4
17.14672 19.4
17.18005 19.4
17.21339 19.4
17.24109 19.4
17.26966 19.4
17.29716 19.4
17.32536 19.4
17.35869 19.4
17.38737 19.4
17.41642 19.4
17.44633 19.4
17.47879 19.4
17.50646 19.4
17.53692 19.4
17.56669 19.4
17.59696 19.4
17.63029 19.4
17.65898 19.4
17.69161 19.4
17.71985 19.4
17.74924 19.4
17.77879 19.4
17.80768 19.4
17.83725 19.4
17.86625 19.4
17.89529 19.4
17.92863 19.4
17.95549 19.4
17.98618 19.4
18.01951 19.4
18.05284 19.4
18.08575 19.4
18.11909 19.4
18.14669 19.4
18.18002 19.4
18.21004 19.4
18.23857 19.4
18.26756 19.4
18.29783 19.4
18.32942 19.4
18.35874 19.4
18.38768 19.4
18.41864 19.4
18.44845 19.4
18.47992 19.4
18.50855 19.4
18.54171 19.4
18.5749 19.4
18.60382 19.4
18.63715 19.4
18.67048 19.4
18.69945 19.4
18.72945 19.4
18.7625 19.4
18.79444 19.4
18.82341 19.4
18.85349 19.4
18.87989 19.4
18.9123 19.4
18.94082 19.4
18.97052 19.4
19.00359 19.4
19.03359 19.4
19.06656 19.4
19.09548 19.4
19.12616 19.4
19.15337 19.4
19.18551 19.4
19.21688 19.4
19.24619 19.4
19.27952 19.4
19.31285 19.4
19.34136 19.4
19.37444 19.4
19.40778 19.4
19.43708 19.4
19.46654 19.4
19.49566 19.4
19.52492 19.4
19.55825 19.4
19.59158 19.4
19.62107 19.4
19.65132 19.4
19.67889 19.4
19.70879 19.4
19.74212 19.4
19.7724 19.4
19.8016 19.4
19.83046 19.4
19.85932 19.4
19.88726 19.4
19.9206 19.4
19.95034 19.4
19.98135 19.4
20.01404 19.4
20.04737 19.4
20.07822 19.4
20.1114 19.4
20.14151 19.4
20.17484 19.4
20.20648 19.4
20.23533 19.4
20.26428 19.4
20.29699 19.4
20.32762 19.4
20.35542 19.4
20.38683 19.4
20.41772 19.4
20.45106 19.4
20.47931 19.4
20.51057 19.4
20.54391 19.4
20.57246 19.4
20.602 19.4
20.63403 19.4
20.66285 19.4
20.69618 19.4
20.72877 19.4
20.76078 19.4
20.79411 19.4
20.82382 19.4
20.85305 19.4
20.88638 19.4
20.91972 19.4
20.95155 19.4
20.98054 19.4
21.00915 19.4
21.04199 19.4
21.07271 19.4
21.10465 19.4
21.133 19.4
21.16634 19.4
21.19396 19.4
21.22327 19.4
21.25202 19.4
21.28043 19.4
21.30911 19.4
21.34079 19.4
21.37044 19.4
21.40378 19.4
21.43647 19.4
21.46543 19.4
21.49773 19.4
21.52728 19.4
21.5576 19.4
21.58643 19.4
21.61531 19.4
21.64371 19.4
21.67704 19.4
21.71038 19.4
21.74371 19.4
21.77217 19.4
21.8055 19.4
21.83883 19.4
21.87216 19.4
21.9055 19.4
21.93409 19.4
21.96348 19.4
21.99271 19.4
22.02209 19.4
22.05173 19.4
22.08048 19.4
22.10958 19.4
22.13898 19.4
22.17232 19.4
22.20356 19.4
22.23171 19.4
22.26122 19.4
22.29132 19.4
22.31985 19.4
22.35103 19.4
22.38128 19.4
22.41461 19.4
22.44417 19.4
22.47624 19.4
22.50957 19.4
22.54085 19.4
22.57001 19.4
22.60064 19.4
22.63397 19.4
22.66375 19.4
22.69575 19.4
22.72459 19.4
22.75738 19.4
22.79071 19.4
22.82195 19.4
22.85129 19.4
22.881 19.4
22.91312 19.4
22.94417 19.4
22.97657 19.4
23.00561 19.4
23.03646 19.4
23.06631 19.4
23.09908 19.4
23.12905 19.4
23.16238 19.4
23.1922 19.4
23.22067 19.4
23.254 19.4
23.2822 19.4
23.30946 19.4
23.33899 19.4
23.36732 19.4
23.39545 19.4
23.42614 19.4
23.45791 19.4
23.48895 19.4
23.5195 19.4
23.54742 19.4
23.58076 19.4
23.60996 19.4
23.63927 19.4
23.66899 19.4
23.69916 19.4
23.72714 19.4
23.75781 19.4
23.78972 19.4
23.82109 19.4
23.85217 19.4
23.88551 19.4
23.91439 19.4
23.94773 19.4
23.97672 19.4
24.00854 19.4
24.03846 19.4
24.06956 19.4
24.09827 19.4
24.12729 19.4
24.15847 19.4
24.18776 19.4
24.21578 19.4
24.24603 19.4
24.27806 19.4
24.3068 19.4
24.34014 19.4
24.36818 19.4
24.40151 19.4
24.43147 19.4
24.45992 19.4
24.48999 19.4
24.51991 19.4
24.54944 19.4
24.57766 19.4
24.60919 19.4
24.64252 19.4
24.67362 19.4
24.70268 19.4
24.73134 19.4
24.7629 19.4
24.79147 19.4
24.82094 19.4
24.85427 19.4
24.88352 19.4
24.91466 19.4
24.94443 19.4
24.97334 19.4
25.00384 19.4
25.03718 19.4
25.06661 19.4
25.09994 19.4
25.12976 19.4
25.16131 19.4
25.18983 19.2
25.21834 19.2
25.25167 18.3
25.28001 18.3
25.30869 17.65
25.33745 17.65
25.36885 17
25.40031 16.6
25.43207 16.6
25.46216 16.15
25.49366 15.9
25.52699 15.9
25.55849 15.7
25.58979 15.7
25.61939 15.7
25.64771 15.7
25.67604 15.7
25.70545 15.5
25.73364 15.5
25.76283 13.5
25.79263 11.1
25.82169 11.1
25.85312 9.15
25.88646 9.15
25.91979 5.45
25.94818 3.05
25.98074 3.05
26.01158 0.65
26.04143 -1.5
26.07476 -1.5
26.10521 -2.6
26.13688 -3.9
26.1657 -3.9
26.19904 -4.15
26.22863 -4.15
26.25962 -4.15
26.28817 -4.15
26.31849 -4.15
26.35183 -4.15
26.38026 -4.15
26.41159 -4.15
26.44492 -4.15
26.47803 -4.15
26.50685 -4.35
26.54019 -4.55
26.57352 -4.55
26.60262 -5
26.63322 -5.2
26.66341 -5.2
26.69242 -5.65
26.72137 -5.65
26.75021 -5.85
26.77934 -5.85
26.81126 -5.85
26.84393 -5.85
26.87147 -5.85
26.90426 -5.85
26.93473 -5.85
26.96595 -5.85
26.99538 -5.85
27.02872 -5.85
27.05938 -5.85
27.09272 -5.85
27.12426 -5.85
27.15418 -5.85
27.18288 -5.85
27.2123 -5.85
27.24563 -5.85
27.27897 -5.85
27.309 -5.85
27.3407 -5.85
27.37284 -5.85
27.40302 -5.85
27.43206 -5.85
27.46457 -5.85
27.4928 -5.85
27.52205 -5.85
27.55272 -5.85
27.58214 -5.85
27.61547 -5.85
27.64633 -5.85
27.67817 -5.85
27.7084 -5.85
27.73813 -5.85
27.76868 -5.85
27.79802 -5.85
27.82807 -5.85
27.86141 -5.85
27.89104 -5.85
27.92438 -5.85
27.95306 -5.85
27.98139 -5.65
28.01472 -5.65
28.04805 -5.65
28.08139 -5.65
28.11472 -5.65
28.14805 -5.65
28.17979 -5.65
28.20983 -5.65
28.24316 -5.65
28.2729 -5.65
28.30259 -5.65
28.33465 -5.65
28.36742 -5.45
28.39637 -5.45
28.42971 -5.45
28.4578 -5.45
28.48774 -5.45
28.51939 -5.45
28.5506 -5.45
28.58393 -5.2
28.61404 -5.2
28.64491 -5
28.6763 -4.55
28.70805 -4.55
28.73709 -4.15
28.7689 -3.7
28.80224 -3.7
28.83557 -3.45
28.86539 -3.25
28.8974 -3.25
28.9285 -3.25
28.95825 -3.25
28.9883 -3.25
29.02163 -3.25
29.05056 -3.25
29.08389 -3.25
29.1129 -3.25
29.14262 -3.25
29.17089 -3.25
29.2028 -3.25
29.23613 -3.25
29.26482 -3.25
29.29568 -3.25
29.32715 -3.25
29.35987 -3.25
29.39021 -3.25
29.42092 -3.25
29.45218 -3.25
29.48489 -3.45
29.51682 -3.45
29.54664 -3.45
29.57997 -3.45
29.60938 -3.45
29.64057 -3.45
29.673 -3.45
29.70212 -3.45
29.73115 -3.45
29.7589 -3.45
29.7873 -3.45
29.82051 -3.45
29.84912 -3.45
29.88245 -3.45
29.91578 -3.45
29.94739 -3.45
29.98072 -3.45
30.01021 -3.45
30.03836 -3.45
30.0717 -3.45
30.10197 -3.45
30.1324 -3.45
30.16039 -3.45
30.19221 -3.45
30.22181 -3.45
30.25064 -3.45
30.28057 -3.45
30.31391 -3.45
30.34724 -3.45
30.38057 -3.45
30.40984 -3.45
30.43787 -3.45
30.46764 -3.45
30.49763 -3.45
30.52636 -3.45
30.55692 -3.45
30.58609 -3.45
30.61942 -3.45
30.65164 -3.45
30.68127 -3.45
30.71054 -3.45
30.73954 -3.45
30.76864 -3.45
30.79751 -3.45
30.83084 -3.45
30.86418 -4.15
30.89338 -5
30.92622 -5
30.95955 -5.85
30.98816 -7.85
31.01689 -7.85
31.05023 -8.95
31.07965 -9.8
31.11221 -9.8
31.14024 -10.7
31.17354 -11.1
31.20158 -11.1
31.23125 -11.75
31.26283 -11.75
31.29616 -12.65
31.32619 -12.65
31.35861 -12.65
31.38821 -12.65
31.41689 -12.85
31.44641 -12.85
31.47563 -13.5
31.5073 -13.5
31.54063 -14.4
31.5692 -15.25
31.59696 -15.25
31.62706 -15.25
31.66039 -14.6
31.69354 -14.6
31.72262 -13.75
31.75404 -13.75
31.78149 -13.5
31.81483 -13.5
31.84736 -13.5
31.88009 -13.75
31.911 -14.15
31.94068 -14.15
31.96915 -14.6
31.99878 -14.6
32.03006 -15.7
32.06176 -17.25
32.09443 -17.25
32.12291 -18.3
32.15374 -18.3
32.18522 -19
32.2174 -19.4
32.24848 -19.4
32.27763 -19.85
32.30912 -19.85
32.33987 -20.05
32.3732 -20.05
32.40224 -20.05
32.43003 -20.05
32.46133 -20.05
32.48982 -20.05
32.52199 -20.05
32.55251 -20.05
32.58545 -20.05
32.61707 -20.05
32.6477 -20.05
32.67556 -20.05
32.70578 -20.05
32.73682 -20.05
32.76574 -20.05
32.79345 -20.05
32.82679 -20.05
32.86008 -20.05
32.88947 -20.05
32.9187 -20.05
32.9471 -20.05
32.97758 -20.05
33.01042 -20.05
33.03942 -20.05
33.06788 -20.05
33.10121 -20.05
33.13001 -20.05
33.15905 -20.05
33.18988 -20.05
33.2204 -20.05
33.24946 -20.05
33.28016 -20.05
33.30904 -20.05
33.33835 -20.05
33.37157 -20.05
33.39986 -20.05
33.43181 -20.05
33.46164 -20.05
33.49498 -20.05
33.52831 -20.05
33.55917 -20.05
33.5925 -20.05
33.62029 -20.05
33.65362 -20.05
33.68695 -20.05
33.71503 -20.05
33.74705 -20.05
33.77658 -20.05
33.80878 -20.05
33.84211 -20.05
33.87545 -20.05
33.90631 -20.05
33.93653 -20.05
33.9655 -20.05
33.99352 -20.05
34.02354 -20.05
34.05687 -20.05
34.08504 -20.05
34.11837 -20.05
34.15171 -20.05
34.18025 -20.05
34.21066 -20.05
34.23864 -20.05
34.26664 -20.05
34.29997 -20.05
34.32845 -20.05
34.359 -20.05
34.38713 -20.05
34.42047 -20.05
34.45337 -20.05
34.4867 -20.05
34.51602 -20.05
34.54677 -20.05
34.5801 -20.05
34.60923 -20.05
34.63736 -20.05
34.66976 -20.05
34.70309 -20.05
34.73033 -20.05
34.75979 -20.05
34.79118 -20.05
34.82337 -20.05
34.8567 -20.05
34.887 -20.05
34.91548 -20.05
34.94881 -20.05
34.98201 -20.05
35.01167 -20.05
35.04101 -20.05
35.07434 -20.05
35.10301 -20.05
35.13144 -20.05
35.1617 -20.05
35.18898 -20.05
35.22232 -20.05
35.25169 -20.05
35.27973 -20.05
35.30921 -20.05
35.34168 -20.05
35.37187 -20.05
35.40242 -20.05
35.43576 -20.05
35.46541 -20.05
35.49821 -20.05
35.53154 -20.05
35.55999 -20.05
35.59109 -20.05
35.61996 -20.05
35.64812 -20.05
35.67963 -20.05
35.71065 -20.05
35.74263 -20.05
35.7752 -20.05
35.80814 -20.05
35.84147 -20.05
35.87012 -20.05
35.90177 -20.05
35.9351 -20.05
35.96691 -20.05
35.99598 -20.05
36.02932 -20.05
36.06265 -20.05
36.09176 -20.05
36.12509 -20.05
36.15842 -20.05
36.1905 -20.05
36.2229 -20.05
36.25572 -20.05
36.28905 -20.05
36.3185 -20.05
36.34813 -20.05
36.37817 -20.05
36.40759 -20.05
36.44092 -20.05
36.47425 -20.05
36.50462 -20.05
36.53795 -19.85
36.56778 -19.85
36.59657 -19.65
36.6268 -19.65
36.65495 -19.65
36.68271 -19.65
36.71323 -19.65
36.74356 -19.65
36.77339 -19.65
36.80672 -19.65
36.84005 -19.65
36.8728 -19.65
36.90613 -19.65
36.93452 -19.65
36.96297 -19.65
36.99305 -19.65
37.02344 -19.65
37.05463 -19.65
37.08796 -19.65
37.1213 -19.65
37.15033 -19.65
37.18149 -19.65
37.21161 -19.65
37.24494 -19.65
37.27379 -19.65
37.30557 -19.65
37.3343 -19.65
37.36354 -19.65
37.39202 -19.65
37.42097 -19.65
37.45426 -19.65
37.48632 -19.65
37.51965 -19.65
37.5499 -19.65
37.5806 -19.65
37.61323 -19.65
37.64301 -19.65
37.67491 -19.65
37.70374 -19.65
37.73679 -19.65
37.77012 -19.65
37.80183 -19.65
37.83182 -19.65
37.86108 -19.65
37.89001 -19.65
37.92265 -19.65
37.95325 -19.65
37.98291 -19.65
38.01267 -19.65
38.04162 -19.65
38.07495 -19.65
38.10829 -19.65
38.13758 -19.65
38.17091 -19.65
38.19941 -19.65
38.23197 -19.65
38.26183 -19.65
38.29157 -19.65
38.32092 -19.65
38.35232 -19.65
38.38491 -19.65
38.41552 -19.65
38.44497 -19.65
38.47347 -19.65
38.50246 -19.65
38.53189 -19.65
38.56115 -19.65
38.59052 -19.65
38.61969 -19.65
38.6512 -19.65
38.68103 -19.65
38.71437 -19.65
38.74653 -19.65
38.77465 -19.65
38.80423 -19.65
38.83343 -19.65
38.86225 -19.65
38.88987 -19.65
38.91975 -19.65
38.95016 -19.65
38.97972 -19.65
39.01219 -19.65
39.04105 -19.65
39.07202 -19.65
39.10535 -19.65
39.13589 -19.65
39.16499 -19.65
39.19433 -19.65
39.22299 -19.65
39.25534 -19.65
39.28867 -19.65
39.31723 -19.65
39.35055 -19.65
39.38036 -19.65
39.40874 -19.65
39.43697 -19.65
39.46857 -19.65
39.50147 -19.65
39.52946 -19.65
39.5582 -19.65
39.58769 -19.65
39.62007 -19.65
39.65183 -19.65
39.68307 -19.65
39.71487 -19.65
39.74557 -19.65
39.77628 -19.65
39.80428 -19.65
39.83349 -19.65
39.86683 -19.65
39.8984 -19.65
39.93174 -19.65
39.96009 -19.65
39.98972 -19.65
40.02305 -19.65
40.05179 -19.65
40.07991 -19.65
40.11124 -19.65
40.14372 -19.65
40.17149 -19.65
40.20197 -19.65
40.23207 -19.65
40.26443 -19.65
40.29406 -19.65
40.3274 -19.65
40.3563 -19.65
40.38715 -19.65
40.42048 -19.65
40.45247 -19.65
40.48212 -19.65
40.51331 -19.65
40.54235 -19.65
40.57569 -19.65
40.60525 -19.65
40.63858 -19.65
40.66803 -19.65
40.70136 -19.65
40.73186 -19.65
40.7637 -19.65
40.79703 -19.65
40.82941 -19.65
40.85889 -19.85
40.88818 -19.85
40.91653 -19.85
40.94549 -19.85
40.975 -20.05
41.00312 -20.05
41.0322 -20.05
41.06553 -20.05
41.09811 -20.05
41.12616 -20.05
41.15488 -20.05
41.18747 -20.05
41.21631 -20.05
41.24624 -20.05
41.27958 -20.05
41.30832 -20.05
41.33844 -20.3
41.36923 -20.3
41.40257 -20.5
41.4359 -21.15
41.46589 -21.15
41.49546 -21.6
41.52879 -22.05
41.55738 -22.05
41.58617 -22.25
41.61951 -22.25
41.64813 -22.5
41.67944 -22.7
41.70772 -22.7
41.73601 -22.9
41.76934 -22.9
41.79944 -22.9
41.82961 -22.9
41.86294 -22.9
41.89595 -22.9
41.92733 -22.9
41.95839 -22.9
41.98714 -22.9
42.02048 -22.9
42.0494 -22.9
42.07861 -22.9
42.11194 -22.9
42.14528 -22.9
42.17353 -22.9
42.20686 -22.9
42.23649 -22.9
42.26657 -23.15
