時間[s] タイヤの舵角[deg]
0 0
0.02 -6.95
0.05333333 -6.95
0.08666666 -6.95
0.12 -6.95
0.1512008 -6.95
0.1833222 -6.95
0.2166555 -6.95
0.2441588 -6.95
0.2729307 -6.95
0.3051079 -6.95
0.3342223 -6.95
0.3632067 -6.95
0.3949971 -6.95
0.425134 -6.95
0.4543716 -6.95
0.487705 -6.95
0.5164707 -6.95
0.5459763 -6.95
0.5768183 -6.95
0.6101517 -6.95
0.643485 -6.95
0.6747389 -6.95
0.7063546 -6.95
0.7360255 -6.95
0.768167 -6.95
0.7977752 -6.95
0.8271462 -6.95
0.8557961 -6.95
0.8847839 -6.95
0.9147404 -6.95
0.9480737 -6.95
0.9794315 -6.95
1.009798 -6.95
1.040191 -6.95
1.071028 -6.95
1.104362 -6.95
1.136722 -6.95
1.167584 -6.95
1.198425 -6.95
1.229653 -6.95
1.262986 -6.95
1.292329 -6.95
1.323546 -6.95
1.355783 -6.95
1.389117 -6.95
1.420627 -6.95
1.45396 -6.95
1.485406 -6.95
1.514803 -6.95
1.543673 -6.95
1.575413 -6.95
1.602283 -6.95
1.635015 -6.95
1.668348 -6.95
1.701681 -6.95
1.731877 -6.95
1.765048 -6.95
1.796919 -6.95
1.827372 -6.95
1.856465 -6.95
1.886799 -6.95
1.915817 -6.95
1.949151 -6.95
1.97626 -6.95
2.007358 -6.95
2.039285 -6.95
2.071068 -6.95
2.104401 -6.95
2.136131 -6.95
2.165152 -6.95
2.193805 -6.95
2.223388 -6.95
2.255888 -6.95
2.288629 -6.95
2.318249 -6.95
2.345738 -6.95
2.376757 -6.95
2.406377 -6.95
2.436958 -6.95
2.470291 -6.95
2.500907 -6.95
2.532176 -6.95
2.559547 -6.95
2.589292 -6.95
2.622625 -6.95
2.65461 -6.95
2.687015 -6.95
2.720348 -6.95
2.753682 -6.95
2.787015 -6.95
2.820349 -6.95
2.851554 -6.95
2.884888 -6.95
2.918221 -6.95
2.951554 -6.95
2.983393 -6.95
3.016637 -6.95
3.049275 -6.95
3.081023 -6.95
3.108387 -6.95
3.139438 -6.95
3.168601 -6.95
3.198385 -6.95
3.228066 -6.95
3.258104 -6.95
3.291437 -6.95
3.322022 -6.95
3.353714 -6.95
3.383848 -6.95
3.414017 -6.95
3.446974 -6.95
3.473728 -6.95
3.502655 -6.95
3.532529 -6.95
3.565862 -6.95
3.595106 -6.95
3.62844 -6.95
3.658072 -6.95
3.691405 -6.95
3.72209 -6.95
3.752553 -6.95
3.785886 -6.95
3.817455 -6.95
3.846493 -6.95
3.875847 -6.95
3.90555 -6.95
3.93661 -6.95
3.966357 -6.95
3.998479 -6.95
4.028223 -6.95
4.057384 -6.95
4.087852 -6.95
4.118417 -6.95
4.148727 -6.95
4.178873 -6.95
4.211895 -6.95
4.242339 -6.95
4.274084 -6.95
4.303134 -6.95
4.332357 -6.95
4.364775 -6.95
4.398108 -6.95
4.431442 -6.95
4.462601 -6.95
4.493889 -6.95
4.527223 -6.95
4.55928 -6.95
4.588191 -6.95
4.618831 -6.95
4.649938 -6.95
4.681685 -6.95
4.714602 -6.95
4.7471 -6.95
4.780433 -6.95
4.81192 -6.95
4.838525 -6.95
4.870919 -6.95
4.902451 -6.95
4.933209 -6.95
4.961332 -6.95
4.993812 -6.95
5.027102 -6.95
5.056454 -6.95
5.085518 -6.95
5.118851 -6.95
5.152184 -6.95
5.185518 -6.95
5.214962 -6.95
5.245766 -6.95
5.279099 -6.95
5.312433 -6.95
5.344519 -6.95
5.374106 -6.95
5.404761 -6.95
5.43681 -6.95
5.464925 -6.95
5.495744 -6.95
5.526933 -6.95
5.558115 -6.95
5.58918 -6.95
5.620475 -6.95
5.653669 -6.95
5.683688 -6.95
5.71404 -6.95
5.744464 -6.95
5.775234 -6.95
5.808567 -6.95
5.838802 -6.95
5.869256 -6.95
5.902589 -6.95
5.933965 -6.95
5.960771 -6.95
5.991386 -6.95
6.02472 -6.95
6.053466 -6.95
6.084825 -6.95
6.118158 -6.95
6.147574 -6.95
6.176353 -6.95
6.206541 -6.95
6.236279 -6.95
6.268702 -6.95
6.302035 -6.95
6.333583 -6.95
6.366916 -6.95
6.400249 -6.95
6.429619 -6.95
6.458251 -6.95
6.48917 -6.95
6.521886 -6.95
6.55522 -6.95
6.584137 -6.95
6.615074 -6.95
6.646223 -6.95
6.676064 -6.95
6.707038 -6.95
6.738659 -6.95
6.768709 -6.95
6.802042 -6.95
6.831532 -6.95
6.861659 -6.95
6.894992 -6.95
6.925969 -6.95
6.954344 -6.95
6.987678 -6.95
7.017581 -6.95
7.050914 -6.95
7.07919 -6.95
7.112051 -6.95
7.145138 -6.95
7.175361 -6.95
7.206938 -6.95
7.237352 -6.95
7.267295 -6.95
7.297447 -6.95
7.33078 -6.95
7.361257 -6.95
7.392519 -6.95
7.421725 -6.95
7.450225 -6.95
7.483559 -6.95
7.515689 -6.95
7.544517 -6.95
7.572775 -6.95
7.606109 -6.95
7.637652 -6.95
7.667748 -6.95
7.695343 -6.95
7.728677 -6.95
7.759844 -6.95
7.790192 -6.95
7.820139 -6.95
7.850173 -6.95
7.883507 -6.95
7.915882 -6.95
7.943843 -6.95
7.97404 -6.95
8.006608 -6.95
8.039615 -6.95
8.071715 -6.95
8.105049 -6.95
8.134692 -6.95
8.16552 -6.95
8.193368 -6.95
8.226701 -6.95
8.25654 -6.95
8.287367 -6.95
8.316055 -6.95
8.346676 -6.95
8.376751 -6.95
8.405979 -6.95
8.439073 -6.95
8.47123 -6.95
8.503361 -6.95
8.533413 -6.95
8.563144 -6.95
8.596477 -6.95
8.626521 -6.95
8.656745 -6.95
8.68696 -6.95
8.718001 -6.95
8.747094 -6.95
8.776883 -6.95
8.809261 -6.95
8.839537 -6.95
8.872869 -6.95
8.90414 -6.95
8.937474 -6.95
8.970053 -6.95
9.000337 -6.95
9.033669 -6.95
9.061967 -6.95
9.0953 -6.95
9.128633 -6.95
9.159541 -6.95
9.191494 -6.95
9.220245 -6.95
9.252306 -6.95
9.28564 -6.95
9.316463 -6.95
9.349795 -6.95
9.381818 -6.95
9.411897 -6.95
9.445217 -6.95
9.47855 -6.95
9.511884 -6.95
9.542935 -6.95
9.572872 -6.95
9.60181 -6.95
9.634037 -6.95
9.665298 -6.95
9.697258 -6.95
9.729115 -6.95
9.760751 -6.95
9.789771 -6.95
9.817127 -6.95
9.846297 -6.95
9.876487 -6.95
9.905116 -6.95
9.934707 -6.95
9.966206 -6.95
9.997202 -6.95
10.02865 -6.95
10.05973 -6.95
10.09063 -6.95
10.12396 -6.95
10.1563 -6.95
10.18736 -6.95
10.22033 -6.95
10.25231 -6.95
10.28223 -6.95
10.31182 -6.95
10.34515 -6.95
10.3744 -6.95
10.40445 -6.95
10.43752 -6.95
10.47016 -6.95
10.50317 -6.95
10.53483 -6.95
10.56816 -6.95
10.59867 -6.95
10.62954 -6.95
10.65972 -6.95
10.68883 -6.95
10.72009 -6.95
10.7507 -6.95
10.78083 -6.95
10.81375 -6.95
10.84334 -6.95
10.87668 -6.95
10.91001 -6.95
10.94294 -6.95
10.97627 -6.95
11.00683 -6.95
11.03691 -6.95
11.06609 -6.95
11.09595 -6.95
11.12928 -6.95
11.15914 -6.95
11.18962 -6.95
11.22296 -6.95
11.25416 -6.95
11.2822 -6.95
11.31046 -6.95
11.3438 -6.95
11.37161 -6.95
11.40041 -6.95
11.42851 -6.95
11.45892 -6.95
11.49225 -6.95
11.5206 -6.95
11.55317 -6.95
11.58222 -6.95
11.61555 -6.95
11.64704 -6.95
11.67795 -6.95
11.70899 -6.95
11.74233 -6.95
11.77447 -6.95
11.8078 -6.95
11.8401 -6.95
11.87189 -6.95
11.90205 -6.95
11.93281 -6.95
11.96369 -6.95
11.99702 -6.95
12.02695 -6.95
12.05923 -6.95
12.09257 -6.95
12.12435 -6.95
12.15769 -6.95
12.18894 -6.95
12.22059 -6.95
12.25392 -6.95
12.28725 -6.95
12.31622 -6.95
12.34645 -6.95
12.37628 -6.95
12.40563 -6.95
12.43519 -6.95
12.46502 -6.95
12.49835 -6.95
12.52838 -6.95
12.55886 -6.95
12.58963 -6.95
12.62296 -6.95
12.65181 -6.95
12.68322 -6.95
12.71415 -6.95
12.74519 -6.95
12.77411 -6.95
12.80294 -6.95
12.83628 -6.95
12.86765 -6.95
12.89782 -6.95
12.92483 -6.95
12.95778 -6.95
12.99059 -6.95
13.02007 -6.95
13.049 -6.95
13.08074 -6.95
13.11102 -6.95
13.14108 -6.95
13.16975 -6.95
13.20309 -6.95
13.23642 -6.95
13.26563 -6.95
13.29896 -6.95
13.33033 -6.95
13.36054 -6.95
13.39124 -6.95
13.41962 -6.95
13.45232 -6.95
13.48362 -6.95
13.51445 -6.95
13.54647 -6.95
13.57844 -6.95
13.60982 -6.95
13.64299 -6.95
13.6735 -6.95
13.7052 -6.95
13.736 -6.95
13.76838 -6.95
13.79746 -6.95
13.82888 -6.95
13.86021 -6.95
13.88777 -6.95
13.91692 -6.95
13.94846 -6.95
13.97756 -6.95
14.00692 -6.95
14.03648 -6.95
14.06689 -6.95
14.09875 -6.95
14.12852 -6.95
14.16185 -6.95
14.19502 -6.95
14.22466 -6.95
14.2549 -6.95
14.28823 -6.95
14.32081 -6.95
14.35218 -6.95
14.38551 -6.95
14.41593 -6.95
14.44778 -6.95
14.48112 -6.95
14.51165 -6.95
14.54062 -6.95
14.56898 -6.95
14.60232 -6.95
14.63565 -6.95
14.66767 -6.95
14.69814 -6.95
14.72785 -6.95
14.75665 -6.95
14.78702 -6.95
14.81683 -6.95
14.84896 -6.95
14.87763 -6.95
14.90721 -6.95
14.93897 -6.95
14.9723 -6.95
15.00557 -6.95
15.03395 -6.95
15.06368 -6.95
15.09462 -6.95
15.12703 -6.95
15.15534 -6.95
15.1862 -6.95
15.21654 -6.95
15.24987 -6.95
15.27872 -6.95
15.31205 -6.95
15.34538 -6.95
15.37622 -6.95
15.4081 -6.95
15.44143 -6.95
15.47477 -6.95
15.50809 -6.95
15.53444 -6.95
15.56777 -6.95
15.6011 -6.95
15.63218 -6.95
15.65958 -6.95
15.69106 -6.95
15.72433 -6.95
15.75694 -6.95
15.78667 -6.95
15.81769 -6.95
15.85102 -6.95
15.87983 -6.95
15.90945 -6.95
15.93845 -6.95
15.97024 -6.95
16.00243 -6.95
16.03074 -6.95
16.06213 -6.95
16.09129 -6.95
16.12109 -6.95
16.15048 -6.95
16.18204 -6.95
16.21276 -6.95
16.24376 -6.95
16.27409 -6.95
16.30503 -6.95
16.33837 -6.95
16.36879 -6.95
16.39673 -6.95
16.43006 -6.95
16.46112 -6.95
16.49169 -6.95
16.52502 -6.95
16.55691 -6.95
16.58768 -6.95
16.61897 -6.95
16.64966 -6.95
16.68162 -6.95
16.71412 -6.95
16.74474 -6.95
16.77324 -6.95
16.80657 -6.95
16.83947 -6.95
16.86973 -6.95
16.90124 -6.95
16.93157 -6.95
16.96206 -6.95
16.99396 -6.95
17.02729 -6.95
17.05764 -6.95
17.09097 -6.95
17.11986 -6.95
17.14742 -6.95
17.17959 -6.95
17.21008 -6.95
17.23972 -6.95
17.26797 -6.95
17.3013 -6.95
17.33463 -6.95
17.36415 -6.95
17.39748 -6.95
17.43081 -6.95
17.46154 -6.95
17.49043 -6.95
17.5193 -6.95
17.55203 -6.95
17.5826 -6.95
17.61287 -6.95
17.6435 -6.95
17.67683 -6.95
17.70707 -6.95
17.7404 -6.95
17.77373 -6.95
17.80438 -6.95
17.83771 -6.95
17.86882 -6.95
17.90072 -6.95
17.93197 -6.95
17.9632 -6.95
17.99396 -6.95
18.02712 -6.95
18.06045 -6.95
18.09293 -6.95
18.12191 -6.95
18.15063 -6.95
18.18049 -6.95
18.21383 -6.95
18.24716 -6.95
18.28049 -6.95
18.31298 -6.95
18.34492 -6.95
18.37825 -6.95
18.4071 -6.95
18.44043 -6.95
18.47164 -6.95
18.50375 -6.95
18.53709 -6.95
18.56965 -6.95
18.60042 -6.95
18.63165 -6.95
18.66498 -6.95
18.69831 -6.95
18.72804 -6.95
18.75775 -6.95
18.78621 -6.95
18.81821 -6.95
18.85155 -6.95
18.88488 -6.95
18.9131 -6.95
18.94416 -6.95
18.9775 -6.95
19.01083 -6.95
19.04113 -6.95
19.07254 -6.95
19.10217 -6.95
19.13074 -6.95
19.16407 -6.95
19.19345 -6.95
19.22395 -6.95
19.25195 -6.95
19.28042 -6.95
19.31375 -6.95
19.34617 -6.95
19.37891 -6.95
19.41224 -6.95
19.44557 -6.95
19.4789 -6.95
19.51224 -6.95
19.54383 -6.95
19.57717 -6.95
19.6105 -6.95
19.64384 -6.95
19.67215 -6.95
19.70548 -6.95
19.73565 -6.95
19.76435 -6.95
19.79769 -6.95
19.82854 -6.95
19.85915 -6.95
19.89208 -6.95
19.9243 -6.95
19.95764 -6.95
19.98923 -6.95
20.01897 -6.95
20.04776 -6.95
20.08109 -6.95
20.11442 -6.95
20.14322 -6.95
20.17306 -6.95
20.20401 -6.95
20.23607 -6.95
20.2694 -6.95
20.30273 -6.95
20.33249 -6.95
20.36508 -6.95
20.39724 -6.95
20.43057 -6.95
20.46391 -6.95
20.49724 -6.95
20.52808 -6.95
20.55992 -6.95
20.59326 -6.95
20.62571 -6.95
20.65905 -6.95
20.68827 -6.95
20.72161 -6.95
20.75494 -6.95
20.78415 -6.95
20.81262 -6.95
20.84595 -6.95
20.87806 -6.95
20.91139 -6.95
20.94472 -6.95
20.97552 -6.95
21.00881 -6.95
21.03971 -6.95
21.07305 -6.95
21.10637 -6.95
21.13708 -6.95
21.16803 -6.95
21.1995 -6.95
21.23283 -6.95
21.26616 -6.95
21.29568 -6.95
21.32497 -6.95
21.3583 -6.95
21.39164 -6.95
21.42174 -6.95
21.45336 -6.95
21.48669 -6.95
21.52003 -6.95
21.55336 -6.95
21.58343 -6.95
21.61473 -6.95
21.64559 -6.95
21.67892 -6.95
21.71226 -6.95
21.74559 -6.95
21.77891 -6.95
21.80973 -6.95
21.84307 -6.95
21.8764 -6.95
21.90973 -6.95
21.93926 -6.95
21.9726 -6.95
22.00593 -6.95
22.03926 -6.95
22.0726 -6.95
22.10269 -6.95
22.13541 -6.95
22.16874 -6.95
22.20207 -6.95
22.23487 -6.95
22.26659 -6.95
22.29659 -6.95
22.32902 -6.95
22.36235 -6.95
22.39569 -6.95
22.42844 -6.95
22.46015 -6.95
22.49106 -6.95
22.52439 -6.95
22.55773 -6.95
22.58771 -6.95
22.61668 -6.95
22.64884 -6.95
22.68218 -6.95
22.71209 -6.95
22.74069 -6.95
22.77403 -6.95
22.80736 -6.95
22.84069 -6.95
22.87368 -6.95
22.90491 -6.95
22.93824 -6.95
22.97158 -6.95
23.00491 -6.95
23.03824 -6.95
23.07158 -6.95
23.10425 -6.95
23.13587 -6.95
23.1692 -6.95
23.20234 -6.95
23.23236 -6.95
23.26152 -6.95
23.29344 -6.95
23.32677 -6.95
23.35593 -6.95
23.38926 -6.95
23.41992 -6.95
23.45037 -6.95
23.4837 -6.95
23.51704 -6.95
23.5473 -6.95
23.58063 -6.95
23.61397 -6.95
23.6473 -6.95
23.68063 -6.95
23.71138 -6.95
23.74244 -6.95
23.77558 -6.95
23.80891 -6.95
23.84225 -6.95
23.87558 -6.95
23.90368 -6.95
23.93373 -6.95
23.96707 -6.95
23.99793 -6.95
24.02684 -6.95
24.06017 -6.95
24.09351 -6.95
24.12684 -6.95
24.15513 -6.95
24.18562 -6.95
24.21563 -6.95
24.24896 -6.95
24.28229 -6.95
24.31563 -6.95
24.34883 -6.95
24.37843 -6.95
24.40821 -6.95
24.44155 -6.95
24.47488 -6.95
24.50513 -6.95
24.53602 -6.95
24.56936 -6.95
24.60269 -6.95
24.63412 -6.95
24.66622 -6.95
24.69642 -6.95
24.72975 -6.95
24.76308 -6.95
24.79216 -6.95
24.82549 -6.95
24.85739 -6.95
24.88763 -6.95
24.92097 -6.95
24.953 -6.95
24.98633 -6.95
25.01966 -6.95
25.0522 -6.95
25.08554 -6.95
25.11887 -6.95
25.15167 -6.95
25.18001 -6.95
25.21334 -6.95
25.24668 -6.95
25.28001 -6.95
25.31334 -6.95
25.34668 -6.95
25.38001 -6.95
25.41334 -6.95
25.44396 -6.95
25.47384 -6.95
25.50718 -6.95
25.54051 -6.95
25.57384 -6.95
25.60718 -6.95
25.64051 -6.95
25.67385 -6.95
25.7035 -6.95
25.73629 -6.95
25.76667 -6.95
25.79617 -6.95
25.8295 -6.95
25.86283 -6.95
25.89617 -6.95
25.92735 -6.95
25.96068 -6.95
25.99402 -6.95
26.02599 -6.95
26.05933 -6.95
26.08797 -6.95
26.11886 -6.95
26.15219 -6.95
26.18553 -6.95
26.21538 -6.95
26.24755 -6.95
26.27841 -6.95
26.31174 -6.95
26.34508 -6.95
26.37608 -6.95
26.407 -6.95
26.43789 -6.95
26.47123 -6.95
26.50456 -6.95
26.5379 -6.95
26.56858 -6.95
26.59876 -6.95
26.63209 -6.95
26.66542 -6.95
26.69727 -6.95
26.72564 -6.95
26.75574 -6.95
26.78907 -6.95
26.82241 -6.95
26.85362 -6.95
26.88446 -6.95
26.91682 -6.95
26.95015 -6.95
26.98348 -6.95
27.01507 -6.95
27.0459 -6.95
27.07766 -6.95
27.11099 -6.95
27.14433 -6.95
27.17582 -6.95
27.20915 -6.95
27.23917 -6.95
27.2725 -6.95
27.30288 -6.95
27.33401 -6.95
27.36734 -6.95
27.40068 -6.95
27.43401 -6.95
27.46585 -6.95
27.49361 -6.95
27.52427 -7.2
27.55613 -7.2
27.58946 -7.6
27.61952 -9.6
27.65014 -9.6
27.68036 -11.35
27.71198 -12.85
27.74532 -12.85
27.77614 -14.6
27.80841 -16.15
27.83863 -16.15
27.86868 -17.65
27.90202 -19.65
27.93339 -19.65
27.96469 -20.75
27.99803 -20.75
28.03136 -23.55
28.06469 -24.9
28.09717 -26.85
28.12667 -26.85
28.15655 -28.6
28.18813 -28.6
28.22147 -30.1
28.2513 -31.2
28.28139 -31.2
28.31258 -32.1
28.34591 -32.75
28.37925 -32.75
28.41029 -32.75
28.44195 -32.75
28.47529 -32.75
28.50862 -32.75
28.54195 -32.75
28.57529 -32.75
28.60862 -32.75
28.63749 -32.75
28.67066 -32.75
28.70399 -32.75
28.73733 -32.75
28.7704 -32.75
28.80113 -32.75
28.83446 -32.75
28.86779 -32.75
28.8999 -32.75
28.93279 -32.75
28.96317 -32.75
28.99503 -32.75
29.02836 -32.75
29.05853 -32.75
29.09028 -32.75
29.11942 -32.75
29.15275 -32.75
29.18609 -32.75
29.21801 -32.75
29.2493 -32.75
29.28068 -32.75
29.31402 -32.75
29.34735 -32.75
29.37695 -32.75
29.40567 -32.75
29.43562 -32.75
29.46692 -32.75
29.50025 -32.75
29.53111 -32.75
29.5634 -32.75
29.59674 -32.75
29.62757 -32.75
29.6609 -32.75
29.69301 -32.75
29.7229 -32.75
29.75279 -32.75
29.78174 -32.75
29.81508 -32.75
29.84494 -32.75
29.87648 -32.75
29.90616 -32.75
29.9365 -32.75
29.96983 -32.75
29.99953 -32.75
30.03286 -32.75
30.06407 -32.75
30.0974 -32.75
30.13073 -32.75
30.15937 -32.75
30.1914 -32.75
30.22473 -32.75
30.25806 -32.75
30.2914 -32.75
30.32279 -32.75
30.35612 -32.75
30.38744 -32.75
30.4187 -32.75
30.45203 -32.75
30.48351 -32.75
30.51663 -32.75
30.54956 -32.75
30.58102 -32.75
30.61436 -32.75
30.64679 -32.75
30.67971 -32.75
30.71129 -32.75
30.74463 -32.75
30.77796 -32.75
30.80714 -32.75
30.83764 -32.75
30.86868 -32.75
30.90202 -32.95
30.93535 -32.95
30.96552 -32.95
30.99697 -33.2
31.02654 -34.25
31.05988 -34.25
31.09321 -35.8
31.12654 -38.2
31.15554 -38.2
31.1885 -41.05
31.22183 -44.55
31.25517 -47.6
31.28499 -47.6
31.31386 -50.85
31.34452 -50.85
31.37669 -53.05
31.41003 -54.8
31.4388 -54.8
31.47213 -56.55
31.50257 -57.85
31.5359 -57.85
31.56923 -59.15
31.60138 -60.25
31.63449 -60.25
31.66445 -60.5
31.69441 -60.5
31.72774 -60.5
31.75965 -59.85
31.79058 -59.85
31.81987 -59.85
31.8532 -60.05
31.88654 -61.35
31.91688 -61.35
31.94698 -62.25
31.98032 -62.65
32.01257 -62.65
32.0459 -62.45
32.07924 -62.65
32.11231 -62.65
32.14536 -63.1
32.1777 -63.3
32.21103 -63.3
32.24079 -63.3
32.27166 -63.3
32.30327 -63.3
32.33661 -63.3
32.36994 -63.3
32.40327 -63.3
32.43293 -63.3
32.46574 -63.55
32.49846 -63.55
32.53179 -63.75
32.56183 -63.75
32.59135 -64.2
32.62152 -64.65
32.6544 -64.65
32.68773 -64.85
32.71786 -65.05
32.7487 -65.05
32.78204 -65.5
32.81402 -66.15
32.84735 -66.15
32.87766 -66.8
32.91099 -67.25
32.9409 -67.25
32.97039 -67.7
33.00373 -67.7
33.03675 -67.7
33.06925 -67.7
33.09972 -67.7
33.13305 -67.7
33.16639 -67.7
33.19972 -67.7
33.23232 -67.7
33.26266 -67.7
33.29599 -67.7
33.32932 -67.7
33.35893 -67.7
33.39094 -67.7
33.42201 -67.7
33.45535 -67.7
33.48868 -67.7
33.52053 -67.7
33.55387 -67.7
33.58653 -67.7
33.61987 -67.7
33.6532 -67.7
33.68653 -67.7
33.71987 -67.7
33.74836 -67.7
33.7796 -67.7
33.81293 -67.7
33.84226 -67.7
33.87234 -67.7
33.90568 -67.7
33.93901 -67.7
33.97235 -67.7
34.0052 -67.7
34.03547 -67.7
34.06726 -67.7
34.097 -67.7
34.13033 -67.7
34.16057 -67.7
34.19297 -67.7
34.22403 -67.7
34.2548 -67.7
34.28814 -67.9
34.31913 -67.9
34.34968 -68.35
34.38301 -68.35
34.41579 -68.55
34.44912 -69
34.47853 -69
34.51186 -69.45
34.542 -69.9
34.57445 -69.9
34.60778 -70.3
34.63718 -70.75
34.66838 -70.75
34.70171 -70.95
34.73166 -71.65
34.76499 -71.65
34.79736 -72.05
34.83069 -73.15
34.86379 -73.15
34.89712 -74.05
34.93045 -74.7
34.96152 -76.2
34.99149 -76.2
35.02024 -77.3
35.05202 -77.3
35.08535 -78.4
35.11536 -78.85
35.14358 -78.85
35.17691 -78.85
35.21024 -78.85
35.24358 -78.85
35.27291 -78.85
35.30624 -78.85
35.33782 -78.85
35.3684 -78.85
35.40174 -78.85
35.43227 -78.85
35.4656 -78.85
35.49894 -78.85
35.53009 -78.85
35.56342 -78.85
35.59675 -78.85
35.62653 -78.85
35.65711 -78.85
35.68934 -78.85
35.72267 -78.85
35.75319 -78.85
35.78652 -78.85
35.81957 -78.85
35.85238 -79.05
35.88571 -79.7
35.91448 -79.7
35.94448 -80.35
35.97462 -81.25
36.00415 -81.25
36.03749 -82.1
36.06998 -83.2
36.10332 -83.2
36.13256 -84.3
36.1659 -85.4
36.19923 -85.4
36.23257 -86.5
36.26251 -87.15
36.29585 -87.15
36.32756 -88
36.36089 -88.9
36.39423 -88.9
36.42684 -89.3
36.46017 -89.55
36.49142 -89.55
36.52475 -89.75
36.55809 -89.75
36.59142 -89.75
36.62476 -89.75
36.65591 -89.75
36.68925 -89.75
36.72161 -89.75
36.75342 -90
36.78675 -90.4
36.82008 -90.4
36.85342 -90.85
36.88626 -91.3
36.91762 -91.3
36.9464 -91.95
36.97973 -92.6
37.01307 -92.6
37.04494 -93.25
37.07827 -93.9
37.1105 -93.9
37.14254 -94.35
37.17588 -95.2
37.20921 -95.85
37.24183 -95.85
37.27485 -96.3
37.30663 -96.3
37.33996 -96.75
37.37176 -96.75
37.40509 -96.75
37.43491 -96.75
37.46478 -96.75
37.49811 -96.95
37.52886 -96.95
37.55851 -97.4
37.58881 -97.4
37.62203 -98.05
37.65536 -98.7
37.68534 -98.7
37.71605 -99.35
37.74939 -100.25
37.78143 -100.25
37.81477 -100.9
37.84475 -101.75
37.87808 -101.75
37.91043 -102.85
37.94032 -103.75
37.97365 -103.75
38.00423 -105.5
38.03465 -107
38.0637 -107
38.09409 -108.1
38.12742 -109
38.15838 -109
38.19171 -110.05
38.22118 -110.05
38.25451 -110.3
38.28784 -110.3
38.32117 -110.05
38.35341 -110.05
38.3858 -109
38.41705 -107.45
38.45038 -107.45
38.48372 -105.7
38.51493 -104.15
38.54827 -104.15
38.57857 -102.65
38.6119 -102.2
38.64523 -102.2
38.67548 -102.2
38.70514 -102.2
38.73365 -102.2
38.76698 -102.2
38.79922 -102.45
38.82969 -102.45
38.85957 -102.65
38.89109 -102.65
38.92442 -103.3
38.95693 -103.75
38.98789 -103.75
39.01787 -103.95
39.04866 -103.95
39.08199 -103.95
39.11227 -103.95
39.14334 -103.95
39.1734 -103.95
39.20593 -103.95
39.23926 -103.95
39.27029 -103.95
39.30363 -104.15
39.33667 -104.4
39.37 -104.4
39.40334 -104.6
39.43667 -104.85
39.4667 -104.85
39.49566 -104.85
39.52779 -104.85
39.56112 -104.85
39.59072 -104.85
39.61989 -104.85
39.65039 -104.85
39.68372 -104.85
39.71705 -104.85
39.75039 -104.85
39.78372 -104.6
39.81401 -103.75
39.84734 -103.75
39.88067 -102.85
39.91401 -101.35
39.94734 -99.6
39.98067 -99.6
40.01231 -98.3
40.04564 -96.75
40.07839 -96.75
40.11169 -95.45
40.14502 -94.55
40.17698 -94.55
40.21032 -93.9
40.24327 -93.45
40.27281 -93.45
40.30614 -93.25
40.33908 -93.25
40.37241 -93.25
40.40352 -93.25
40.43646 -93.25
40.46979 -93.25
40.50016 -93.25
40.5335 -93.25
40.56478 -93.25
40.59587 -93.25
40.6252 -93.25
40.65443 -93.25
40.68777 -93.25
40.71895 -93.25
40.74885 -93.25
40.77806 -93.25
40.81037 -93.25
40.84371 -93.25
40.87486 -93.25
40.90498 -93.45
40.93831 -93.45
40.97165 -93.7
41.00498 -93.9
41.03831 -93.9
41.0687 -94.15
41.09949 -94.15
41.12993 -94.15
41.16326 -94.15
41.19436 -94.15
41.22769 -94.15
41.25701 -94.15
41.28578 -94.15
41.31911 -94.15
41.34933 -94.15
41.38116 -94.15
41.41084 -94.15
41.44417 -94.15
41.47751 -94.15
41.51084 -94.15
41.54417 -94.15
